File: Task01/nick/files/ESI_material_XRD/steady_state/crystal_size_analysis/Volumes_Water/1489_RVR_neatgrind.xy
4.00155 2407.000
4.12323 1988.000
4.24491 1725.000
4.36659 1571.000
4.48827 1457.000
4.60995 1295.000
4.73163 1170.000
4.85331 1248.000
4.97499 1083.000
5.09667 1137.000
5.21835 1015.000
5.34003 1008.000
5.46171 917.000
5.58339 963.000
5.70507 857.000
5.82676 858.000
5.94844 909.000
6.07012 800.000
6.19180 826.000
6.31348 903.000
6.43516 868.000
6.55684 908.000
6.67852 1068.000
6.80020 1324.000
6.92188 878.000
7.04356 816.000
7.16524 804.000
7.28692 767.000
7.40860 737.000
7.53028 818.000
7.65197 765.000
7.77365 770.000
7.89533 752.000
8.01701 798.000
8.13869 817.000
8.26037 995.000
8.38205 1267.000
8.50373 855.000
8.62541 760.000
8.74709 757.000
8.86877 664.000
8.99045 691.000
9.11213 688.000
9.23381 694.000
9.35549 707.000
9.47717 686.000
9.59886 657.000
9.72054 662.000
9.84222 666.000
9.96390 647.000
10.08558 657.000
10.20726 662.000
10.32894 652.000
10.45062 675.000
10.57230 656.000
10.69398 631.000
10.81566 614.000
10.93734 664.000
11.05902 676.000
11.18070 662.000
11.30238 648.000
11.42406 664.000
11.54575 637.000
11.66743 617.000
11.78911 629.000
11.91079 645.000
12.03247 640.000
12.15415 670.000
12.27583 673.000
12.39751 673.000
12.51919 664.000
12.64087 708.000
12.76255 723.000
12.88423 712.000
13.00591 760.000
13.12759 728.000
13.24927 735.000
13.37096 856.000
13.49264 820.000
13.61432 842.000
13.73600 864.000
13.85768 774.000
13.97936 837.000
14.10104 790.000
14.22272 816.000
14.34440 871.000
14.46608 825.000
14.58776 974.000
14.70944 963.000
14.83112 988.000
14.95280 990.000
15.07448 981.000
15.19616 939.000
15.31785 971.000
15.43953 992.000
15.56121 988.000
15.68289 1028.000
15.80457 989.000
15.92625 1074.000
16.04793 1157.000
16.16961 1155.000
16.29129 1304.000
16.41297 1443.000
16.53465 1284.000
16.65633 1431.000
16.77801 1473.000
16.89969 1466.000
17.02137 1605.000
17.14305 1619.000
17.26474 1465.000
17.38642 1520.000
17.50810 1437.000
17.62978 1463.000
17.75146 1572.000
17.87314 1627.000
17.99482 2028.000
18.11650 2199.000
18.23818 1724.000
18.35986 1698.000
18.48154 1720.000
18.60322 1846.000
18.72490 1922.000
18.84658 1799.000
18.96826 1848.000
19.08995 1798.000
19.21163 1810.000
19.33331 1802.000
19.45499 1981.000
19.57667 1968.000
19.69835 1900.000
19.82003 2063.000
19.94171 2118.000
20.06339 1879.000
20.18507 1941.000
20.30675 2040.000
20.42843 1876.000
20.55011 1686.000
20.67179 1595.000
20.79347 1624.000
20.91515 1561.000
21.03684 1637.000
21.15852 1715.000
21.28020 1967.000
21.40188 2318.000
21.52356 2621.000
21.64524 2251.000
21.76692 1645.000
21.88860 1527.000
22.01028 1510.000
22.13196 1370.000
22.25364 1361.000
22.37532 1310.000
22.49700 1399.000
22.61868 1399.000
22.74036 1348.000
22.86204 1323.000
22.98373 1232.000
23.10541 1171.000
23.22709 1239.000
23.34877 1366.000
23.47045 1483.000
23.59213 1388.000
23.71381 1301.000
23.83549 1164.000
23.95717 1144.000
24.07885 1059.000
24.20053 1179.000
24.32221 1173.000
24.44389 1160.000
24.56557 1027.000
24.68725 1115.000
24.80893 1021.000
24.93062 998.000
25.05230 998.000
25.17398 1051.000
25.29566 1009.000
25.41734 964.000
25.53902 1053.000
25.66070 948.000
25.78238 962.000
25.90406 989.000
26.02574 1041.000
26.14742 992.000
26.26910 992.000
26.39078 974.000
26.51246 952.000
26.63414 953.000
26.75583 901.000
26.87751 929.000
26.99919 948.000
27.12087 914.000
27.24255 883.000
27.36423 866.000
27.48591 904.000
27.60759 838.000
27.72927 766.000
27.85095 734.000
27.97263 769.000
28.09431 711.000
28.21599 764.000
28.33767 738.000
28.45935 756.000
28.58103 783.000
28.70272 739.000
28.82440 728.000
28.94608 766.000
29.06776 741.000
29.18944 707.000
29.31112 711.000
29.43280 723.000
29.55448 690.000
29.67616 735.000
29.79784 678.000
29.91952 688.000
30.04120 704.000
30.16288 649.000
30.28456 690.000
30.40624 666.000
30.52792 653.000
30.64961 617.000
30.77129 623.000
30.89297 570.000
31.01465 586.000
31.13633 645.000
31.25801 587.000
31.37969 581.000
31.50137 598.000
31.62305 580.000
31.74473 601.000
31.86641 611.000
31.98809 563.000
32.10977 595.000
32.23145 583.000
32.35313 568.000
32.47482 598.000
32.59650 558.000
32.71818 528.000
32.83986 556.000
32.96154 568.000
33.08322 553.000
33.20490 563.000
33.32658 532.000
33.44826 547.000
33.56994 550.000
33.69162 515.000
33.81330 583.000
33.93498 543.000
34.05666 525.000
34.17834 553.000
34.30002 539.000
34.42171 620.000
34.54339 598.000
34.66507 628.000
34.78675 600.000
34.90843 602.000
35.03011 530.000
35.15179 572.000
35.27347 561.000
35.39515 543.000
35.51683 517.000
35.63851 550.000
35.76019 526.000
35.88187 542.000
36.00355 539.000
36.12523 515.000
36.24691 505.000
36.36860 506.000
36.49028 517.000
36.61196 539.000
36.73364 536.000
36.85532 575.000
36.97700 522.000
37.09868 521.000
37.22036 496.000
37.34204 560.000
37.46372 491.000
37.58540 523.000
37.70708 500.000
37.82876 503.000
37.95044 561.000
38.07212 524.000
38.19381 510.000
38.31549 522.000
38.43717 524.000
38.55885 504.000
38.68053 511.000
38.80221 516.000
38.92389 512.000
39.04557 475.000
39.16725 502.000
39.28893 544.000
39.41061 528.000
39.53229 556.000
39.65397 533.000
39.77565 535.000
39.89733 499.000
39.99873 572.000