File: Task01/nick/files/ESI_material_XRD/steady_state/crystal_size_analysis/Volumes_Water/1802_RVR_mill_water_1.0.xy
5.00155 870.000
5.20232 767.000
5.40309 679.000
5.60387 700.000
5.80464 567.000
6.00541 509.000
6.20618 508.000
6.40696 514.000
6.60773 920.000
6.80850 3851.000
7.00928 602.000
7.21005 367.000
7.41082 369.000
7.61160 368.000
7.81237 556.000
8.01314 409.000
8.21391 1193.000
8.41469 3284.000
8.61546 581.000
8.81623 351.000
9.01701 310.000
9.21778 328.000
9.41855 360.000
9.61933 333.000
9.82010 362.000
10.02087 336.000
10.22165 306.000
10.42242 480.000
10.62319 645.000
10.82396 388.000
11.02474 337.000
11.22551 340.000
11.42628 283.000
11.62706 320.000
11.82783 313.000
12.02860 301.000
12.22938 256.000
12.43015 278.000
12.63092 298.000
12.83170 288.000
13.03247 321.000
13.23324 685.000
13.43401 902.000
13.63479 884.000
13.83556 384.000
14.03633 329.000
14.23711 338.000
14.43788 446.000
14.63865 1562.000
14.83943 929.000
15.04020 526.000
15.24097 349.000
15.44174 366.000
15.64252 400.000
15.84329 434.000
16.04406 557.000
16.24484 1167.000
16.44561 2105.000
16.64638 1668.000
16.84716 2013.000
17.04793 3211.000
17.24870 1339.000
17.44948 719.000
17.65025 782.000
17.85102 1258.000
18.05179 5147.000
18.25257 1872.000
18.45334 1042.000
18.65411 2823.000
18.85489 1428.000
19.05566 1255.000
19.25643 845.000
19.45721 2689.000
19.65798 1747.000
19.85875 2868.000
20.05952 1984.000
20.26030 2966.000
20.46107 1569.000
20.66184 843.000
20.86262 772.000
21.06339 1197.000
21.26416 3075.000
21.46494 8001.000
21.66571 6599.000
21.86648 1373.000
22.06726 793.000
22.26803 822.000
22.46880 1270.000
22.66957 866.000
22.87035 1246.000
23.07112 979.000
23.27189 1036.000
23.47267 2568.000
23.67344 1795.000
23.87421 1097.000
24.07499 757.000
24.27576 1220.000
24.47653 1548.000
24.67731 933.000
24.87808 781.000
25.07885 1219.000
25.27962 1568.000
25.48040 1118.000
25.68117 662.000
25.88194 960.000
26.08272 1546.000
26.28349 1009.000
26.48426 1291.000
26.68504 1195.000
26.88581 1372.000
27.08658 1415.000
27.28735 1000.000
27.48813 1135.000
27.68890 642.000
27.88967 489.000
28.09045 497.000
28.29122 690.000
28.49199 1082.000
28.69277 848.000
28.89354 780.000
29.09431 1002.000
29.29509 802.000
29.49586 863.000
29.69663 877.000
29.89740 981.000
30.09818 855.000
30.29895 695.000
30.49972 738.000
30.70050 468.000
30.90127 500.000
31.10204 706.000
31.30282 622.000
31.50359 505.000
31.70436 609.000
31.90513 605.000
32.10591 642.000
32.30668 526.000
32.50745 480.000
32.70823 522.000
32.90900 575.000
33.10977 663.000
33.31055 710.000
33.51132 546.000
33.71209 509.000
33.91287 570.000
34.11364 681.000
34.31441 694.000
34.51518 1075.000
34.71596 905.000
34.91673 896.000
35.11750 647.000
35.31828 567.000
35.51905 574.000
35.71982 537.000
35.92060 467.000
36.12137 525.000
36.32214 583.000
36.52292 700.000
36.72369 772.000
36.92446 699.000
37.12523 669.000
37.32601 542.000
37.52678 523.000
37.72755 609.000
37.92833 652.000
38.12910 589.000
38.32987 492.000
38.53065 538.000
38.73142 511.000
38.93219 453.000
39.13296 482.000
39.33374 510.000
39.53451 596.000
39.73528 623.000
39.93606 538.000
40.13683 685.000
40.33760 715.000
40.53838 582.000
40.73915 500.000
40.93992 498.000
41.14070 492.000
41.34147 620.000
41.54224 614.000
41.74301 697.000
41.94379 539.000
42.14456 467.000
42.34533 453.000
42.54611 449.000
42.74688 437.000
42.94765 438.000
43.14843 502.000
43.34920 584.000
43.54997 584.000
43.75075 633.000
43.95152 698.000
44.15229 587.000
44.35306 467.000
44.55384 478.000
44.75461 485.000
44.95538 507.000
45.15616 493.000
45.35693 482.000
45.55770 477.000
45.75848 486.000
45.95925 461.000
46.16002 480.000
46.36079 460.000
46.56157 530.000
46.76234 519.000
46.96311 439.000
47.16389 477.000
47.36466 555.000
47.56543 508.000
47.76621 490.000
47.96698 468.000
48.16775 438.000
48.36853 444.000
48.56930 443.000
48.77007 385.000
48.97084 374.000
49.17162 405.000
49.37239 455.000
49.57316 469.000
49.77394 459.000
49.97471 422.000
50.17548 431.000
50.37626 512.000
50.57703 481.000
50.77780 418.000
50.97857 410.000
51.17935 457.000
51.38012 441.000
51.58089 393.000
51.78167 372.000
51.98244 384.000
52.18321 374.000
52.38399 404.000
52.58476 383.000
52.78553 394.000
52.98631 377.000
53.18708 384.000
53.38785 371.000
53.58862 365.000
53.78940 399.000
53.99017 372.000
54.19094 350.000
54.39172 357.000
54.59249 369.000
54.79326 382.000
54.99404 337.000
55.19481 341.000
55.39558 352.000
55.59636 389.000
55.79713 341.000
55.99790 407.000
56.19867 372.000
56.39945 370.000
56.60022 399.000
56.80099 376.000
57.00177 362.000
57.20254 395.000
57.40331 375.000
57.60409 384.000
57.80486 350.000
58.00563 354.000
58.20640 354.000
58.40718 339.000
58.60795 363.000
58.80872 353.000
59.00950 365.000
59.21027 385.000
59.41104 366.000
59.61182 326.000
59.81259 307.000
60.01336 309.000
60.21414 288.000
60.41491 340.000
60.61568 319.000
60.81645 292.000
60.99898 323.000