File: Task01/nick/files/ESI_material_XRD/steady_state/crystal_size_analysis/Volumes_Water/2014_RVR_10ul_Water.xy
5.00155 991.000
5.16379 893.000
5.32603 760.000
5.48827 714.000
5.65051 683.000
5.81275 633.000
5.97499 577.000
6.13723 617.000
6.29947 683.000
6.46171 799.000
6.62395 1590.000
6.78620 4108.000
6.94844 2153.000
7.11068 814.000
7.27292 552.000
7.43516 584.000
7.59740 566.000
7.75964 538.000
7.92188 616.000
8.08412 926.000
8.24636 2107.000
8.40860 4064.000
8.57084 1405.000
8.73309 756.000
8.89533 634.000
9.05757 529.000
9.21981 532.000
9.38205 472.000
9.54429 482.000
9.70653 475.000
9.86877 504.000
10.03101 531.000
10.19325 498.000
10.35549 544.000
10.51773 914.000
10.67998 743.000
10.84222 561.000
11.00446 510.000
11.16670 441.000
11.32894 444.000
11.49118 496.000
11.65342 473.000
11.81566 434.000
11.97790 452.000
12.14014 457.000
12.30238 488.000
12.46463 470.000
12.62687 498.000
12.78911 481.000
12.95135 552.000
13.11359 774.000
13.27583 964.000
13.43807 1157.000
13.60031 1431.000
13.76255 800.000
13.92479 592.000
14.08703 543.000
14.24927 602.000
14.41152 626.000
14.57376 1163.000
14.73600 1853.000
14.89824 1398.000
15.06048 889.000
15.22272 674.000
15.38496 678.000
15.54720 661.000
15.70944 667.000
15.87168 698.000
16.03392 887.000
16.19616 1306.000
16.35841 2495.000
16.52065 2252.000
16.68289 2205.000
16.84513 2537.000
17.00737 2618.000
17.16961 4390.000
17.33185 1671.000
17.49409 1167.000
17.65633 1117.000
17.81857 1416.000
17.98081 2946.000
18.14305 6362.000
18.30530 2445.000
18.46754 1611.000
18.62978 2611.000
18.79202 3046.000
18.95426 1845.000
19.11650 1689.000
19.27874 1668.000
19.44098 2755.000
19.60322 3258.000
19.76546 2646.000
19.92770 3817.000
20.08995 3082.000
20.25219 3392.000
20.41443 3451.000
20.57667 1693.000
20.73891 1272.000
20.90115 1293.000
21.06339 1665.000
21.22563 2798.000
21.38787 6231.000
21.55011 9307.000
21.71235 6935.000
21.87459 2539.000
22.03684 1440.000
22.19908 1249.000
22.36132 1306.000
22.52356 1628.000
22.68580 1377.000
22.84804 1469.000
23.01028 1521.000
23.17252 1295.000
23.33476 1559.000
23.49700 2823.000
23.65924 2466.000
23.82148 1647.000
23.98373 1294.000
24.14597 1198.000
24.30821 1626.000
24.47045 1906.000
24.63269 1273.000
24.79493 1319.000
24.95717 1081.000
25.11941 1507.000
25.28165 1766.000
25.44389 1560.000
25.60613 1189.000
25.76837 1025.000
25.93062 1325.000
26.09286 1753.000
26.25510 1437.000
26.41734 1374.000
26.57958 1716.000
26.74182 1539.000
26.90406 1587.000
27.06630 1643.000
27.22854 1307.000
27.39078 1286.000
27.55302 1228.000
27.71526 819.000
27.87751 799.000
28.03975 710.000
28.20199 784.000
28.36423 1029.000
28.52647 1181.000
28.68871 1027.000
28.85095 931.000
29.01319 1038.000
29.17543 1087.000
29.33767 1018.000
29.49991 961.000
29.66216 1021.000
29.82440 1068.000
29.98664 1119.000
30.14888 928.000
30.31112 800.000
30.47336 894.000
30.63560 681.000
30.79784 652.000
30.96008 631.000
31.12232 780.000
31.28456 726.000
31.44680 682.000
31.60905 663.000
31.77129 818.000
31.93353 730.000
32.09577 731.000
32.25801 688.000
32.42025 629.000
32.58249 564.000
32.74473 650.000
32.90697 694.000
33.06921 702.000
33.23145 767.000
33.39369 820.000
33.55594 637.000
33.71818 644.000
33.88042 641.000
34.04266 678.000
34.20490 746.000
34.36714 869.000
34.52938 1042.000
34.69162 1082.000
34.85386 879.000
35.01610 887.000
35.17834 766.000
35.34058 646.000
35.50283 664.000
35.66507 653.000
35.82731 600.000
35.98955 561.000
36.15179 604.000
36.31403 675.000
36.47627 755.000
36.63851 884.000
36.80075 855.000
36.96299 802.000
37.12523 799.000
37.28748 665.000
37.44972 636.000
37.61196 651.000
37.77420 695.000
37.93644 740.000
38.09868 789.000
38.26092 646.000
38.42316 646.000
38.58540 615.000
38.74764 586.000
38.90988 579.000
39.07212 562.000
39.23437 600.000
39.39661 644.000
39.55885 670.000
39.72109 712.000
39.88333 685.000
40.04557 711.000
40.20781 771.000
40.37005 822.000
40.53229 717.000
40.69453 621.000
40.85677 638.000
41.01901 588.000
41.18126 614.000
41.34350 690.000
41.50574 719.000
41.66798 765.000
41.83022 787.000
41.99246 609.000
42.15470 571.000
42.31694 556.000
42.47918 526.000
42.64142 531.000
42.80366 529.000
42.96590 573.000
43.12815 597.000
43.29039 663.000
43.45263 626.000
43.61487 660.000
43.77711 709.000
43.93935 768.000
44.10159 718.000
44.26383 647.000
44.42607 560.000
44.58831 583.000
44.75055 571.000
44.91280 584.000
45.07504 615.000
45.23728 571.000
45.39952 569.000
45.56176 535.000
45.72400 644.000
45.88624 578.000
46.04848 555.000
46.21072 531.000
46.37296 531.000
46.53520 579.000
46.69744 603.000
46.85969 553.000
47.02193 615.000
47.18417 566.000
47.34641 623.000
47.50865 622.000
47.67089 566.000
47.83313 570.000
47.99537 503.000
48.15761 473.000
48.31985 519.000
48.48209 510.000
48.64433 472.000
48.80658 488.000
48.96882 509.000
49.13106 482.000
49.29330 454.000
49.45554 481.000
49.61778 476.000
49.78002 488.000
49.94226 491.000
50.00310 502.000