File: Task01/nick/files/ESI_material_XRD/steady_state/crystal_size_analysis/Volumes_MeCN/1919_RVR_40ul_mill_MeCN.xy
5.00155 910.000
5.16379 900.000
5.32603 722.000
5.48827 698.000
5.65051 617.000
5.81275 594.000
5.97499 569.000
6.13723 586.000
6.29947 641.000
6.46171 793.000
6.62395 871.000
6.78620 2633.000
6.94844 1066.000
7.11068 504.000
7.27292 459.000
7.43516 412.000
7.59740 448.000
7.75964 467.000
7.92188 393.000
8.08412 515.000
8.24636 1121.000
8.40860 3439.000
8.57084 2573.000
8.73309 1774.000
8.89533 583.000
9.05757 531.000
9.21981 515.000
9.38205 996.000
9.54429 1714.000
9.70653 876.000
9.86877 2747.000
10.03101 697.000
10.19325 472.000
10.35549 482.000
10.51773 748.000
10.67998 585.000
10.84222 822.000
11.00446 1330.000
11.16670 434.000
11.32894 389.000
11.49118 320.000
11.65342 420.000
11.81566 391.000
11.97790 371.000
12.14014 383.000
12.30238 382.000
12.46463 435.000
12.62687 358.000
12.78911 366.000
12.95135 443.000
13.11359 576.000
13.27583 926.000
13.43807 786.000
13.60031 1425.000
13.76255 1976.000
13.92479 743.000
14.08703 479.000
14.24927 453.000
14.41152 391.000
14.57376 721.000
14.73600 1153.000
14.89824 1007.000
15.06048 538.000
15.22272 413.000
15.38496 495.000
15.54720 696.000
15.70944 796.000
15.87168 799.000
16.03392 2188.000
16.19616 1305.000
16.35841 2213.000
16.52065 1620.000
16.68289 3058.000
16.84513 1928.000
17.00737 1486.000
17.16961 2509.000
17.33185 3356.000
17.49409 1229.000
17.65633 2332.000
17.81857 4284.000
17.98081 2238.000
18.14305 3782.000
18.30530 4256.000
18.46754 3021.000
18.62978 1854.000
18.79202 2203.000
18.95426 2681.000
19.11650 1479.000
19.27874 1322.000
19.44098 2848.000
19.60322 2785.000
19.76546 3065.000
19.92770 3795.000
20.08995 3861.000
20.25219 2568.000
20.41443 2797.000
20.57667 2965.000
20.73891 1870.000
20.90115 1215.000
21.06339 1162.000
21.22563 1891.000
21.38787 4466.000
21.55011 6933.000
21.71235 6389.000
21.87459 1600.000
22.03684 1428.000
22.19908 2094.000
22.36132 1097.000
22.52356 1326.000
22.68580 1421.000
22.84804 1410.000
23.01028 1251.000
23.17252 918.000
23.33476 1407.000
23.49700 2411.000
23.65924 1710.000
23.82148 1270.000
23.98373 1330.000
24.14597 1410.000
24.30821 1320.000
24.47045 1713.000
24.63269 1107.000
24.79493 1532.000
24.95717 989.000
25.11941 1269.000
25.28165 2382.000
25.44389 1904.000
25.60613 982.000
25.76837 1170.000
25.93062 1279.000
26.09286 1939.000
26.25510 1452.000
26.41734 1410.000
26.57958 1368.000
26.74182 1088.000
26.90406 1267.000
27.06630 1088.000
27.22854 934.000
27.39078 992.000
27.55302 997.000
27.71526 587.000
27.87751 620.000
28.03975 607.000
28.20199 650.000
28.36423 873.000
28.52647 1517.000
28.68871 1393.000
28.85095 940.000
29.01319 768.000
29.17543 787.000
29.33767 744.000
29.49991 684.000
29.66216 953.000
29.82440 1307.000
29.98664 1118.000
30.14888 1123.000
30.31112 857.000
30.47336 786.000
30.63560 567.000
30.79784 622.000
30.96008 711.000
31.12232 803.000
31.28456 838.000
31.44680 856.000
31.60905 1135.000
31.77129 1032.000
31.93353 891.000
32.09577 941.000
32.25801 569.000
32.42025 674.000
32.58249 554.000
32.74473 571.000
32.90697 615.000
33.06921 711.000
33.23145 692.000
33.39369 719.000
33.55594 628.000
33.71818 705.000
33.88042 554.000
34.04266 582.000
34.20490 645.000
34.36714 630.000
34.52938 688.000
34.69162 808.000
34.85386 757.000
35.01610 950.000
35.17834 804.000
35.34058 782.000
35.50283 566.000
35.66507 538.000
35.82731 540.000
35.98955 622.000
36.15179 810.000
36.31403 870.000
36.47627 713.000
36.63851 716.000
36.80075 703.000
36.96299 634.000
37.12523 598.000
37.28748 667.000
37.44972 528.000
37.61196 531.000
37.77420 584.000
37.93644 681.000
38.09868 683.000
38.26092 673.000
38.42316 715.000
38.58540 615.000
38.74764 630.000
38.90988 610.000
39.07212 690.000
39.23437 576.000
39.39661 595.000
39.55885 632.000
39.72109 662.000
39.88333 645.000
40.04557 623.000
40.20781 739.000
40.37005 802.000
40.53229 838.000
40.69453 682.000
40.85677 571.000
41.01901 564.000
41.18126 583.000
41.34350 645.000
41.50574 574.000
41.66798 577.000
41.83022 632.000
41.99246 469.000
42.15470 483.000
42.31694 520.000
42.47918 520.000
42.64142 541.000
42.80366 514.000
42.96590 508.000
43.12815 558.000
43.29039 643.000
43.45263 598.000
43.61487 592.000
43.77711 652.000
43.93935 643.000
44.10159 586.000
44.26383 580.000
44.42607 653.000
44.58831 609.000
44.75055 638.000
44.91280 581.000
45.07504 607.000
45.23728 535.000
45.39952 503.000
45.56176 611.000
45.72400 581.000
45.88624 501.000
46.04848 491.000
46.21072 573.000
46.37296 601.000
46.53520 608.000
46.69744 619.000
46.85969 522.000
47.02193 516.000
47.18417 521.000
47.34641 534.000
47.50865 589.000
47.67089 548.000
47.83313 551.000
47.99537 546.000
48.15761 514.000
48.31985 513.000
48.48209 509.000
48.64433 482.000
48.80658 476.000
48.96882 467.000
49.13106 460.000
49.29330 462.000
49.45554 490.000
49.61778 446.000
49.78002 488.000
49.94226 453.000
50.00310 449.000