File: Task01/nick/files/ESI_material_XRD/steady_state/crystal_size_analysis/Volumes_MeCN/1925_RVR_20ul_mill_MeCN.xy
5.00155 928.000
5.16379 793.000
5.32603 716.000
5.48827 671.000
5.65051 611.000
5.81275 583.000
5.97499 528.000
6.13723 540.000
6.29947 522.000
6.46171 637.000
6.62395 1429.000
6.78620 5258.000
6.94844 987.000
7.11068 518.000
7.27292 456.000
7.43516 409.000
7.59740 403.000
7.75964 431.000
7.92188 449.000
8.08412 659.000
8.24636 2116.000
8.40860 3768.000
8.57084 626.000
8.73309 451.000
8.89533 438.000
9.05757 387.000
9.21981 398.000
9.38205 360.000
9.54429 369.000
9.70653 361.000
9.86877 432.000
10.03101 366.000
10.19325 340.000
10.35549 395.000
10.51773 1001.000
10.67998 422.000
10.84222 365.000
11.00446 331.000
11.16670 366.000
11.32894 323.000
11.49118 319.000
11.65342 328.000
11.81566 314.000
11.97790 273.000
12.14014 303.000
12.30238 337.000
12.46463 302.000
12.62687 342.000
12.78911 331.000
12.95135 359.000
13.11359 619.000
13.27583 732.000
13.43807 903.000
13.60031 1106.000
13.76255 430.000
13.92479 394.000
14.08703 360.000
14.24927 395.000
14.41152 438.000
14.57376 1233.000
14.73600 1139.000
14.89824 1227.000
15.06048 500.000
15.22272 417.000
15.38496 391.000
15.54720 388.000
15.70944 435.000
15.87168 450.000
16.03392 581.000
16.19616 962.000
16.35841 2891.000
16.52065 1419.000
16.68289 1841.000
16.84513 1870.000
17.00737 2627.000
17.16961 2940.000
17.33185 885.000
17.49409 652.000
17.65633 742.000
17.81857 999.000
17.98081 3375.000
18.14305 5088.000
18.30530 1311.000
18.46754 1106.000
18.62978 2699.000
18.79202 2021.000
18.95426 1373.000
19.11650 1033.000
19.27874 1079.000
19.44098 2899.000
19.60322 2096.000
19.76546 1936.000
19.92770 3527.000
20.08995 2143.000
20.25219 3057.000
20.41443 2260.000
20.57667 1005.000
20.73891 844.000
20.90115 945.000
21.06339 1288.000
21.22563 2567.000
21.38787 6705.000
21.55011 8923.000
21.71235 4573.000
21.87459 1227.000
22.03684 830.000
22.19908 848.000
22.36132 1068.000
22.52356 1245.000
22.68580 955.000
22.84804 1352.000
23.01028 1178.000
23.17252 856.000
23.33476 1541.000
23.49700 2897.000
23.65924 1851.000
23.82148 1265.000
23.98373 804.000
24.14597 839.000
24.30821 1723.000
24.47045 1314.000
24.63269 994.000
24.79493 950.000
24.95717 848.000
25.11941 1426.000
25.28165 1455.000
25.44389 1275.000
25.60613 793.000
25.76837 784.000
25.93062 1214.000
26.09286 1488.000
26.25510 981.000
26.41734 1210.000
26.57958 1383.000
26.74182 1221.000
26.90406 1546.000
27.06630 1322.000
27.22854 1095.000
27.39078 1177.000
27.55302 971.000
27.71526 568.000
27.87751 589.000
28.03975 534.000
28.20199 621.000
28.36423 903.000
28.52647 1068.000
28.68871 809.000
28.85095 809.000
29.01319 987.000
29.17543 893.000
29.33767 880.000
29.49991 805.000
29.66216 872.000
29.82440 953.000
29.98664 968.000
30.14888 740.000
30.31112 748.000
30.47336 705.000
30.63560 567.000
30.79784 457.000
30.96008 597.000
31.12232 702.000
31.28456 573.000
31.44680 484.000
31.60905 581.000
31.77129 636.000
31.93353 653.000
32.09577 596.000
32.25801 535.000
32.42025 512.000
32.58249 464.000
32.74473 489.000
32.90697 601.000
33.06921 629.000
33.23145 712.000
33.39369 674.000
33.55594 560.000
33.71818 513.000
33.88042 546.000
34.04266 632.000
34.20490 594.000
34.36714 773.000
34.52938 1150.000
34.69162 891.000
34.85386 806.000
35.01610 771.000
35.17834 664.000
35.34058 610.000
35.50283 567.000
35.66507 525.000
35.82731 457.000
35.98955 481.000
36.15179 577.000
36.31403 595.000
36.47627 675.000
36.63851 793.000
36.80075 834.000
36.96299 701.000
37.12523 667.000
37.28748 540.000
37.44972 521.000
37.61196 528.000
37.77420 587.000
37.93644 659.000
38.09868 625.000
38.26092 564.000
38.42316 540.000
38.58540 508.000
38.74764 467.000
38.90988 478.000
39.07212 468.000
39.23437 532.000
39.39661 540.000
39.55885 595.000
39.72109 585.000
39.88333 577.000
40.04557 649.000
40.20781 739.000
40.37005 795.000
40.53229 604.000
40.69453 485.000
40.85677 516.000
41.01901 494.000
41.18126 553.000
41.34350 623.000
41.50574 724.000
41.66798 697.000
41.83022 630.000
41.99246 539.000
42.15470 440.000
42.31694 499.000
42.47918 407.000
42.64142 423.000
42.80366 475.000
42.96590 451.000
43.12815 505.000
43.29039 645.000
43.45263 605.000
43.61487 589.000
43.77711 573.000
43.93935 654.000
44.10159 587.000
44.26383 536.000
44.42607 511.000
44.58831 482.000
44.75055 541.000
44.91280 508.000
45.07504 507.000
45.23728 485.000
45.39952 483.000
45.56176 491.000
45.72400 510.000
45.88624 493.000
46.04848 494.000
46.21072 500.000
46.37296 522.000
46.53520 500.000
46.69744 539.000
46.85969 518.000
47.02193 488.000
47.18417 512.000
47.34641 600.000
47.50865 533.000
47.67089 515.000
47.83313 516.000
47.99537 484.000
48.15761 427.000
48.31985 459.000
48.48209 430.000
48.64433 471.000
48.80658 427.000
48.96882 407.000
49.13106 415.000
49.29330 453.000
49.45554 433.000
49.61778 458.000
49.78002 439.000
49.94226 492.000
50.00310 480.000