File: Task01/nick/files/ESI_material_XRD/steady_state/crystal_size_analysis/Volumes_MeCN/1926_RVR_10ul_mill_MeCN.xy
5.00155 857.000
5.16379 824.000
5.32603 684.000
5.48827 592.000
5.65051 642.000
5.81275 546.000
5.97499 528.000
6.13723 506.000
6.29947 563.000
6.46171 630.000
6.62395 1413.000
6.78620 4992.000
6.94844 896.000
7.11068 495.000
7.27292 419.000
7.43516 460.000
7.59740 435.000
7.75964 421.000
7.92188 436.000
8.08412 672.000
8.24636 2356.000
8.40860 3252.000
8.57084 607.000
8.73309 427.000
8.89533 415.000
9.05757 390.000
9.21981 377.000
9.38205 388.000
9.54429 353.000
9.70653 320.000
9.86877 386.000
10.03101 351.000
10.19325 363.000
10.35549 400.000
10.51773 934.000
10.67998 456.000
10.84222 340.000
11.00446 323.000
11.16670 324.000
11.32894 318.000
11.49118 309.000
11.65342 270.000
11.81566 335.000
11.97790 312.000
12.14014 313.000
12.30238 303.000
12.46463 312.000
12.62687 322.000
12.78911 342.000
12.95135 349.000
13.11359 595.000
13.27583 773.000
13.43807 942.000
13.60031 993.000
13.76255 431.000
13.92479 373.000
14.08703 388.000
14.24927 390.000
14.41152 470.000
14.57376 1166.000
14.73600 1209.000
14.89824 1218.000
15.06048 463.000
15.22272 385.000
15.38496 419.000
15.54720 382.000
15.70944 383.000
15.87168 440.000
16.03392 478.000
16.19616 921.000
16.35841 2860.000
16.52065 1418.000
16.68289 1884.000
16.84513 1722.000
17.00737 2659.000
17.16961 2926.000
17.33185 794.000
17.49409 653.000
17.65633 663.000
17.81857 942.000
17.98081 3295.000
18.14305 4917.000
18.30530 1165.000
18.46754 1111.000
18.62978 2597.000
18.79202 1874.000
18.95426 1386.000
19.11650 1040.000
19.27874 1080.000
19.44098 2874.000
19.60322 2082.000
19.76546 1933.000
19.92770 3438.000
20.08995 2154.000
20.25219 2913.000
20.41443 2096.000
20.57667 956.000
20.73891 823.000
20.90115 875.000
21.06339 1232.000
21.22563 2572.000
21.38787 6850.000
21.55011 9001.000
21.71235 4357.000
21.87459 1258.000
22.03684 838.000
22.19908 822.000
22.36132 1036.000
22.52356 1271.000
22.68580 956.000
22.84804 1356.000
23.01028 1128.000
23.17252 880.000
23.33476 1501.000
23.49700 2908.000
23.65924 1729.000
23.82148 1271.000
23.98373 783.000
24.14597 865.000
24.30821 1742.000
24.47045 1391.000
24.63269 933.000
24.79493 982.000
24.95717 832.000
25.11941 1394.000
25.28165 1404.000
25.44389 1225.000
25.60613 769.000
25.76837 754.000
25.93062 1279.000
26.09286 1471.000
26.25510 1033.000
26.41734 1130.000
26.57958 1368.000
26.74182 1184.000
26.90406 1514.000
27.06630 1297.000
27.22854 1034.000
27.39078 1198.000
27.55302 854.000
27.71526 534.000
27.87751 501.000
28.03975 527.000
28.20199 591.000
28.36423 911.000
28.52647 1055.000
28.68871 762.000
28.85095 802.000
29.01319 990.000
29.17543 880.000
29.33767 808.000
29.49991 802.000
29.66216 834.000
29.82440 930.000
29.98664 955.000
30.14888 660.000
30.31112 731.000
30.47336 704.000
30.63560 464.000
30.79784 472.000
30.96008 591.000
31.12232 655.000
31.28456 606.000
31.44680 476.000
31.60905 562.000
31.77129 660.000
31.93353 662.000
32.09577 599.000
32.25801 538.000
32.42025 466.000
32.58249 491.000
32.74473 537.000
32.90697 570.000
33.06921 612.000
33.23145 699.000
33.39369 646.000
33.55594 493.000
33.71818 526.000
33.88042 570.000
34.04266 614.000
34.20490 615.000
34.36714 759.000
34.52938 1115.000
34.69162 847.000
34.85386 848.000
35.01610 757.000
35.17834 621.000
35.34058 553.000
35.50283 602.000
35.66507 550.000
35.82731 435.000
35.98955 469.000
36.15179 537.000
36.31403 548.000
36.47627 679.000
36.63851 741.000
36.80075 808.000
36.96299 639.000
37.12523 609.000
37.28748 573.000
37.44972 551.000
37.61196 571.000
37.77420 609.000
37.93644 648.000
38.09868 635.000
38.26092 551.000
38.42316 531.000
38.58540 505.000
38.74764 438.000
38.90988 457.000
39.07212 481.000
39.23437 515.000
39.39661 567.000
39.55885 610.000
39.72109 590.000
39.88333 550.000
40.04557 673.000
40.20781 706.000
40.37005 655.000
40.53229 630.000
40.69453 491.000
40.85677 475.000
41.01901 515.000
41.18126 551.000
41.34350 640.000
41.50574 676.000
41.66798 716.000
41.83022 645.000
41.99246 494.000
42.15470 522.000
42.31694 471.000
42.47918 449.000
42.64142 447.000
42.80366 439.000
42.96590 457.000
43.12815 543.000
43.29039 626.000
43.45263 543.000
43.61487 601.000
43.77711 635.000
43.93935 663.000
44.10159 583.000
44.26383 542.000
44.42607 501.000
44.58831 513.000
44.75055 513.000
44.91280 510.000
45.07504 499.000
45.23728 424.000
45.39952 485.000
45.56176 493.000
45.72400 498.000
45.88624 498.000
46.04848 489.000
46.21072 475.000
46.37296 479.000
46.53520 520.000
46.69744 498.000
46.85969 496.000
47.02193 468.000
47.18417 514.000
47.34641 566.000
47.50865 558.000
47.67089 534.000
47.83313 478.000
47.99537 472.000
48.15761 438.000
48.31985 419.000
48.48209 397.000
48.64433 407.000
48.80658 383.000
48.96882 399.000
49.13106 452.000
49.29330 353.000
49.45554 388.000
49.61778 429.000
49.78002 444.000
49.94226 403.000
50.00310 448.000