File: Task01/nick/files/ESI_material_XRD/steady_state/crystal_size_analysis/Volumes_MeCN/1947_RVR_30ul_mill_MeCN.xy
5.00155 862.000
5.16379 752.000
5.32603 702.000
5.48827 674.000
5.65051 652.000
5.81275 600.000
5.97499 571.000
6.13723 539.000
6.29947 523.000
6.46171 687.000
6.62395 1170.000
6.78620 4440.000
6.94844 1420.000
7.11068 576.000
7.27292 459.000
7.43516 463.000
7.59740 491.000
7.75964 530.000
7.92188 498.000
8.08412 621.000
8.24636 1784.000
8.40860 4798.000
8.57084 1429.000
8.73309 897.000
8.89533 554.000
9.05757 495.000
9.21981 469.000
9.38205 613.000
9.54429 878.000
9.70653 543.000
9.86877 1261.000
10.03101 522.000
10.19325 405.000
10.35549 501.000
10.51773 991.000
10.67998 578.000
10.84222 577.000
11.00446 715.000
11.16670 380.000
11.32894 365.000
11.49118 390.000
11.65342 404.000
11.81566 390.000
11.97790 381.000
12.14014 386.000
12.30238 390.000
12.46463 432.000
12.62687 377.000
12.78911 413.000
12.95135 423.000
13.11359 649.000
13.27583 962.000
13.43807 985.000
13.60031 1505.000
13.76255 1188.000
13.92479 591.000
14.08703 425.000
14.24927 432.000
14.41152 500.000
14.57376 986.000
14.73600 1631.000
14.89824 1349.000
15.06048 658.000
15.22272 479.000
15.38496 462.000
15.54720 557.000
15.70944 618.000
15.87168 659.000
16.03392 1275.000
16.19616 1101.000
16.35841 3047.000
16.52065 1791.000
16.68289 2566.000
16.84513 2411.000
17.00737 2228.000
17.16961 3310.000
17.33185 1900.000
17.49409 926.000
17.65633 1365.000
17.81857 2325.000
17.98081 2836.000
18.14305 5323.000
18.30530 2531.000
18.46754 1886.000
18.62978 2481.000
18.79202 2386.000
18.95426 1846.000
19.11650 1380.000
19.27874 1238.000
19.44098 3046.000
19.60322 2969.000
19.76546 2444.000
19.92770 3987.000
20.08995 2915.000
20.25219 3139.000
20.41443 3065.000
20.57667 1857.000
20.73891 1210.000
20.90115 1053.000
21.06339 1265.000
21.22563 2291.000
21.38787 6242.000
21.55011 8969.000
21.71235 6017.000
21.87459 1509.000
22.03684 1204.000
22.19908 1376.000
22.36132 1080.000
22.52356 1493.000
22.68580 1250.000
22.84804 1413.000
23.01028 1423.000
23.17252 996.000
23.33476 1466.000
23.49700 2926.000
23.65924 2090.000
23.82148 1435.000
23.98373 1088.000
24.14597 1144.000
24.30821 1584.000
24.47045 1860.000
24.63269 1120.000
24.79493 1303.000
24.95717 926.000
25.11941 1454.000
25.28165 2017.000
25.44389 1588.000
25.60613 953.000
25.76837 941.000
25.93062 1232.000
26.09286 1870.000
26.25510 1226.000
26.41734 1265.000
26.57958 1489.000
26.74182 1185.000
26.90406 1545.000
27.06630 1478.000
27.22854 1067.000
27.39078 1128.000
27.55302 1158.000
27.71526 677.000
27.87751 586.000
28.03975 605.000
28.20199 702.000
28.36423 938.000
28.52647 1285.000
28.68871 1088.000
28.85095 863.000
29.01319 1005.000
29.17543 998.000
29.33767 946.000
29.49991 857.000
29.66216 1029.000
29.82440 1213.000
29.98664 1125.000
30.14888 896.000
30.31112 839.000
30.47336 777.000
30.63560 552.000
30.79784 615.000
30.96008 659.000
31.12232 844.000
31.28456 705.000
31.44680 682.000
31.60905 775.000
31.77129 859.000
31.93353 775.000
32.09577 750.000
32.25801 667.000
32.42025 610.000
32.58249 501.000
32.74473 628.000
32.90697 685.000
33.06921 682.000
33.23145 694.000
33.39369 714.000
33.55594 642.000
33.71818 612.000
33.88042 569.000
34.04266 638.000
34.20490 686.000
34.36714 671.000
34.52938 1013.000
34.69162 938.000
34.85386 803.000
35.01610 831.000
35.17834 767.000
35.34058 663.000
35.50283 639.000
35.66507 566.000
35.82731 547.000
35.98955 549.000
36.15179 646.000
36.31403 704.000
36.47627 706.000
36.63851 772.000
36.80075 790.000
36.96299 716.000
37.12523 669.000
37.28748 663.000
37.44972 549.000
37.61196 556.000
37.77420 617.000
37.93644 715.000
38.09868 663.000
38.26092 653.000
38.42316 659.000
38.58540 583.000
38.74764 543.000
38.90988 534.000
39.07212 545.000
39.23437 543.000
39.39661 587.000
39.55885 664.000
39.72109 695.000
39.88333 620.000
40.04557 701.000
40.20781 809.000
40.37005 828.000
40.53229 755.000
40.69453 579.000
40.85677 572.000
41.01901 535.000
41.18126 563.000
41.34350 683.000
41.50574 660.000
41.66798 679.000
41.83022 709.000
41.99246 555.000
42.15470 490.000
42.31694 497.000
42.47918 500.000
42.64142 494.000
42.80366 464.000
42.96590 521.000
43.12815 597.000
43.29039 623.000
43.45263 645.000
43.61487 651.000
43.77711 702.000
43.93935 679.000
44.10159 668.000
44.26383 620.000
44.42607 588.000
44.58831 566.000
44.75055 549.000
44.91280 588.000
45.07504 613.000
45.23728 564.000
45.39952 550.000
45.56176 541.000
45.72400 540.000
45.88624 537.000
46.04848 527.000
46.21072 505.000
46.37296 586.000
46.53520 549.000
46.69744 587.000
46.85969 535.000
47.02193 498.000
47.18417 582.000
47.34641 579.000
47.50865 541.000
47.67089 559.000
47.83313 527.000
47.99537 524.000
48.15761 517.000
48.31985 508.000
48.48209 501.000
48.64433 487.000
48.80658 460.000
48.96882 421.000
49.13106 474.000
49.29330 475.000
49.45554 470.000
49.61778 466.000
49.78002 471.000
49.94226 456.000
50.00310 454.000