File: Task01/nick/files/ESI_material_XRD/steady_state/crystal_size_analysis/Volumes_MeCN/1962_RVR_50ul_mill_MeCN_081020.xy
5.00155 818.000
5.16379 778.000
5.32603 687.000
5.48827 657.000
5.65051 545.000
5.81275 504.000
5.97499 475.000
6.13723 494.000
6.29947 565.000
6.46171 812.000
6.62395 490.000
6.78620 890.000
6.94844 551.000
7.11068 377.000
7.27292 330.000
7.43516 352.000
7.59740 362.000
7.75964 384.000
7.92188 357.000
8.08412 362.000
8.24636 518.000
8.40860 1291.000
8.57084 3622.000
8.73309 1806.000
8.89533 459.000
9.05757 418.000
9.21981 465.000
9.38205 1239.000
9.54429 2139.000
9.70653 986.000
9.86877 4213.000
10.03101 611.000
10.19325 401.000
10.35549 422.000
10.51773 518.000
10.67998 437.000
10.84222 1022.000
11.00446 1569.000
11.16670 396.000
11.32894 334.000
11.49118 340.000
11.65342 343.000
11.81566 334.000
11.97790 320.000
12.14014 329.000
12.30238 380.000
12.46463 346.000
12.62687 314.000
12.78911 295.000
12.95135 447.000
13.11359 473.000
13.27583 1004.000
13.43807 552.000
13.60031 1268.000
13.76255 2471.000
13.92479 593.000
14.08703 357.000
14.24927 353.000
14.41152 341.000
14.57376 383.000
14.73600 572.000
14.89824 884.000
15.06048 355.000
15.22272 378.000
15.38496 421.000
15.54720 725.000
15.70944 766.000
15.87168 712.000
16.03392 3250.000
16.19616 953.000
16.35841 1394.000
16.52065 1349.000
16.68289 3514.000
16.84513 953.000
17.00737 801.000
17.16961 1547.000
17.33185 4766.000
17.49409 1176.000
17.65633 3423.000
17.81857 4740.000
17.98081 1576.000
18.14305 1996.000
18.30530 5778.000
18.46754 3210.000
18.62978 1167.000
18.79202 1937.000
18.95426 2999.000
19.11650 1093.000
19.27874 1282.000
19.44098 2619.000
19.60322 1998.000
19.76546 3488.000
19.92770 3158.000
20.08995 4314.000
20.25219 1988.000
20.41443 2022.000
20.57667 3716.000
20.73891 1470.000
20.90115 1243.000
21.06339 959.000
21.22563 1494.000
21.38787 3076.000
21.55011 4134.000
21.71235 6008.000
21.87459 1233.000
22.03684 1450.000
22.19908 2810.000
22.36132 883.000
22.52356 1146.000
22.68580 1477.000
22.84804 1095.000
23.01028 942.000
23.17252 797.000
23.33476 1205.000
23.49700 1624.000
23.65924 1226.000
23.82148 1089.000
23.98373 1435.000
24.14597 1488.000
24.30821 1014.000
24.47045 1210.000
24.63269 1037.000
24.79493 1472.000
24.95717 822.000
25.11941 1095.000
25.28165 2562.000
25.44389 1830.000
25.60613 823.000
25.76837 1310.000
25.93062 1087.000
26.09286 1962.000
26.25510 1376.000
26.41734 1394.000
26.57958 980.000
26.74182 769.000
26.90406 1093.000
27.06630 627.000
27.22854 676.000
27.39078 772.000
27.55302 806.000
27.71526 483.000
27.87751 517.000
28.03975 552.000
28.20199 533.000
28.36423 839.000
28.52647 1719.000
28.68871 1379.000
28.85095 814.000
29.01319 555.000
29.17543 683.000
29.33767 561.000
29.49991 532.000
29.66216 896.000
29.82440 1430.000
29.98664 1083.000
30.14888 1086.000
30.31112 787.000
30.47336 598.000
30.63560 532.000
30.79784 602.000
30.96008 667.000
31.12232 662.000
31.28456 894.000
31.44680 917.000
31.60905 1350.000
31.77129 1064.000
31.93353 793.000
32.09577 846.000
32.25801 569.000
32.42025 625.000
32.58249 517.000
32.74473 457.000
32.90697 577.000
33.06921 661.000
33.23145 627.000
33.39369 542.000
33.55594 600.000
33.71818 687.000
33.88042 523.000
34.04266 426.000
34.20490 485.000
34.36714 449.000
34.52938 471.000
34.69162 565.000
34.85386 684.000
35.01610 878.000
35.17834 803.000
35.34058 781.000
35.50283 469.000
35.66507 445.000
35.82731 485.000
35.98955 650.000
36.15179 834.000
36.31403 879.000
36.47627 630.000
36.63851 503.000
36.80075 471.000
36.96299 472.000
37.12523 577.000
37.28748 697.000
37.44972 497.000
37.61196 426.000
37.77420 459.000
37.93644 585.000
38.09868 497.000
38.26092 626.000
38.42316 612.000
38.58540 507.000
38.74764 545.000
38.90988 691.000
39.07212 713.000
39.23437 565.000
39.39661 527.000
39.55885 575.000
39.72109 465.000
39.88333 516.000
40.04557 507.000
40.20781 581.000
40.37005 725.000
40.53229 895.000
40.69453 681.000
40.85677 489.000
41.01901 459.000
41.18126 538.000
41.34350 507.000
41.50574 436.000
41.66798 454.000
41.83022 399.000
41.99246 382.000
42.15470 414.000
42.31694 458.000
42.47918 477.000
42.64142 500.000
42.80366 434.000
42.96590 455.000
43.12815 504.000
43.29039 556.000
43.45263 486.000
43.61487 536.000
43.77711 541.000
43.93935 528.000
44.10159 458.000
44.26383 533.000
44.42607 611.000
44.58831 605.000
44.75055 604.000
44.91280 533.000
45.07504 485.000
45.23728 528.000
45.39952 546.000
45.56176 560.000
45.72400 519.000
45.88624 483.000
46.04848 489.000
46.21072 540.000
46.37296 590.000
46.53520 613.000
46.69744 537.000
46.85969 479.000
47.02193 469.000
47.18417 460.000
47.34641 479.000
47.50865 508.000
47.67089 482.000
47.83313 496.000
47.99537 489.000
48.15761 488.000
48.31985 437.000
48.48209 453.000
48.64433 393.000
48.80658 460.000
48.96882 457.000
49.13106 451.000
49.29330 424.000
49.45554 401.000
49.61778 436.000
49.78002 400.000
49.94226 411.000
50.00310 406.000