File: Task01/nick/files/ESI_material_XRD/steady_state/crystal_size_analysis/Volumes_Ace/1908_RVR_40ul_mill_Ace.xy
5.00155 830.000
5.16379 816.000
5.32603 710.000
5.48827 680.000
5.65051 575.000
5.81275 502.000
5.97499 523.000
6.13723 515.000
6.29947 500.000
6.46171 554.000
6.62395 554.000
6.78620 1138.000
6.94844 472.000
7.11068 356.000
7.27292 346.000
7.43516 329.000
7.59740 355.000
7.75964 313.000
7.92188 340.000
8.08412 366.000
8.24636 634.000
8.40860 1097.000
8.57084 1647.000
8.73309 774.000
8.89533 427.000
9.05757 341.000
9.21981 375.000
9.38205 837.000
9.54429 717.000
9.70653 687.000
9.86877 1416.000
10.03101 410.000
10.19325 328.000
10.35549 322.000
10.51773 429.000
10.67998 324.000
10.84222 712.000
11.00446 643.000
11.16670 324.000
11.32894 295.000
11.49118 293.000
11.65342 303.000
11.81566 263.000
11.97790 277.000
12.14014 274.000
12.30238 278.000
12.46463 319.000
12.62687 284.000
12.78911 278.000
12.95135 358.000
13.11359 453.000
13.27583 610.000
13.43807 489.000
13.60031 980.000
13.76255 1062.000
13.92479 414.000
14.08703 344.000
14.24927 281.000
14.41152 369.000
14.57376 429.000
14.73600 571.000
14.89824 610.000
15.06048 368.000
15.22272 333.000
15.38496 421.000
15.54720 586.000
15.70944 530.000
15.87168 726.000
16.03392 1624.000
16.19616 873.000
16.35841 1331.000
16.52065 1204.000
16.68289 1620.000
16.84513 858.000
17.00737 1094.000
17.16961 1506.000
17.33185 2163.000
17.49409 926.000
17.65633 2336.000
17.81857 2406.000
17.98081 1574.000
18.14305 2091.000
18.30530 3518.000
18.46754 1683.000
18.62978 1304.000
18.79202 1716.000
18.95426 1601.000
19.11650 889.000
19.27874 1097.000
19.44098 2072.000
19.60322 1603.000
19.76546 2154.000
19.92770 2693.000
20.08995 2229.000
20.25219 1924.000
20.41443 1711.000
20.57667 2349.000
20.73891 1152.000
20.90115 993.000
21.06339 920.000
21.22563 1531.000
21.38787 3104.000
21.55011 4187.000
21.71235 3042.000
21.87459 1134.000
22.03684 1191.000
22.19908 1395.000
22.36132 846.000
22.52356 1049.000
22.68580 1132.000
22.84804 953.000
23.01028 841.000
23.17252 718.000
23.33476 1128.000
23.49700 1409.000
23.65924 1066.000
23.82148 931.000
23.98373 1038.000
24.14597 1043.000
24.30821 1044.000
24.47045 962.000
24.63269 921.000
24.79493 977.000
24.95717 726.000
25.11941 1128.000
25.28165 1758.000
25.44389 1245.000
25.60613 775.000
25.76837 1006.000
25.93062 1029.000
26.09286 1289.000
26.25510 1095.000
26.41734 1134.000
26.57958 897.000
26.74182 763.000
26.90406 897.000
27.06630 781.000
27.22854 674.000
27.39078 745.000
27.55302 629.000
27.71526 473.000
27.87751 468.000
28.03975 505.000
28.20199 483.000
28.36423 743.000
28.52647 1214.000
28.68871 925.000
28.85095 760.000
29.01319 600.000
29.17543 601.000
29.33767 586.000
29.49991 583.000
29.66216 790.000
29.82440 1099.000
29.98664 876.000
30.14888 774.000
30.31112 690.000
30.47336 515.000
30.63560 478.000
30.79784 511.000
30.96008 550.000
31.12232 574.000
31.28456 688.000
31.44680 716.000
31.60905 921.000
31.77129 763.000
31.93353 682.000
32.09577 613.000
32.25801 497.000
32.42025 472.000
32.58249 425.000
32.74473 457.000
32.90697 515.000
33.06921 588.000
33.23145 536.000
33.39369 519.000
33.55594 508.000
33.71818 528.000
33.88042 476.000
34.04266 452.000
34.20490 509.000
34.36714 483.000
34.52938 571.000
34.69162 598.000
34.85386 611.000
35.01610 699.000
35.17834 658.000
35.34058 572.000
35.50283 462.000
35.66507 444.000
35.82731 428.000
35.98955 566.000
36.15179 650.000
36.31403 657.000
36.47627 527.000
36.63851 552.000
36.80075 514.000
36.96299 467.000
37.12523 502.000
37.28748 527.000
37.44972 462.000
37.61196 449.000
37.77420 468.000
37.93644 529.000
38.09868 487.000
38.26092 524.000
38.42316 569.000
38.58540 509.000
38.74764 478.000
38.90988 547.000
39.07212 548.000
39.23437 484.000
39.39661 494.000
39.55885 568.000
39.72109 506.000
39.88333 506.000
40.04557 534.000
40.20781 543.000
40.37005 606.000
40.53229 687.000
40.69453 571.000
40.85677 433.000
41.01901 464.000
41.18126 455.000
41.34350 430.000
41.50574 435.000
41.66798 448.000
41.83022 452.000
41.99246 378.000
42.15470 391.000
42.31694 453.000
42.47918 424.000
42.64142 411.000
42.80366 402.000
42.96590 433.000
43.12815 506.000
43.29039 451.000
43.45263 460.000
43.61487 503.000
43.77711 501.000
43.93935 477.000
44.10159 462.000
44.26383 505.000
44.42607 575.000
44.58831 514.000
44.75055 510.000
44.91280 454.000
45.07504 437.000
45.23728 454.000
45.39952 450.000
45.56176 481.000
45.72400 463.000
45.88624 433.000
46.04848 444.000
46.21072 468.000
46.37296 473.000
46.53520 539.000
46.69744 455.000
46.85969 433.000
47.02193 435.000
47.18417 471.000
47.34641 477.000
47.50865 450.000
47.67089 449.000
47.83313 461.000
47.99537 415.000
48.15761 454.000
48.31985 439.000
48.48209 413.000
48.64433 376.000
48.80658 381.000
48.96882 410.000
49.13106 416.000
49.29330 404.000
49.45554 400.000
49.61778 377.000
49.78002 400.000
49.94226 405.000
50.00310 375.000