File: Task01/nick/files/ESI_material_XRD/steady_state/crystal_size_analysis/Volumes_Ace/1909_RVR_30ul_mill_Ace.xy
5.00155 726.000
5.16379 670.000
5.32603 584.000
5.48827 597.000
5.65051 588.000
5.81275 521.000
5.97499 481.000
6.13723 472.000
6.29947 571.000
6.46171 689.000
6.62395 1006.000
6.78620 3556.000
6.94844 1208.000
7.11068 499.000
7.27292 460.000
7.43516 413.000
7.59740 431.000
7.75964 431.000
7.92188 455.000
8.08412 566.000
8.24636 1344.000
8.40860 4540.000
8.57084 1529.000
8.73309 1117.000
8.89533 484.000
9.05757 487.000
9.21981 466.000
9.38205 677.000
9.54429 1057.000
9.70653 622.000
9.86877 1651.000
10.03101 567.000
10.19325 483.000
10.35549 429.000
10.51773 764.000
10.67998 538.000
10.84222 684.000
11.00446 949.000
11.16670 407.000
11.32894 360.000
11.49118 380.000
11.65342 375.000
11.81566 394.000
11.97790 385.000
12.14014 341.000
12.30238 429.000
12.46463 413.000
12.62687 385.000
12.78911 378.000
12.95135 453.000
13.11359 618.000
13.27583 963.000
13.43807 950.000
13.60031 1536.000
13.76255 1331.000
13.92479 552.000
14.08703 441.000
14.24927 450.000
14.41152 508.000
14.57376 807.000
14.73600 1635.000
14.89824 1278.000
15.06048 619.000
15.22272 502.000
15.38496 489.000
15.54720 548.000
15.70944 643.000
15.87168 654.000
16.03392 1450.000
16.19616 1103.000
16.35841 2659.000
16.52065 1798.000
16.68289 2596.000
16.84513 2446.000
17.00737 1930.000
17.16961 3586.000
17.33185 2346.000
17.49409 1049.000
17.65633 1511.000
17.81857 3247.000
17.98081 2629.000
18.14305 5560.000
18.30530 2994.000
18.46754 2450.000
18.62978 2280.000
18.79202 2545.000
18.95426 2124.000
19.11650 1525.000
19.27874 1226.000
19.44098 2734.000
19.60322 3059.000
19.76546 2530.000
19.92770 4016.000
20.08995 3032.000
20.25219 2940.000
20.41443 3341.000
20.57667 2050.000
20.73891 1532.000
20.90115 1159.000
21.06339 1231.000
21.22563 2137.000
21.38787 5612.000
21.55011 8538.000
21.71235 6373.000
21.87459 1619.000
22.03684 1235.000
22.19908 1479.000
22.36132 1093.000
22.52356 1513.000
22.68580 1306.000
22.84804 1402.000
23.01028 1327.000
23.17252 997.000
23.33476 1405.000
23.49700 2728.000
23.65924 2089.000
23.82148 1413.000
23.98373 1179.000
24.14597 1227.000
24.30821 1456.000
24.47045 1941.000
24.63269 1023.000
24.79493 1377.000
24.95717 920.000
25.11941 1360.000
25.28165 2008.000
25.44389 1655.000
25.60613 1042.000
25.76837 955.000
25.93062 1196.000
26.09286 1818.000
26.25510 1311.000
26.41734 1351.000
26.57958 1465.000
26.74182 1163.000
26.90406 1355.000
27.06630 1312.000
27.22854 1087.000
27.39078 1117.000
27.55302 1121.000
27.71526 622.000
27.87751 587.000
28.03975 566.000
28.20199 638.000
28.36423 846.000
28.52647 1310.000
28.68871 1202.000
28.85095 900.000
29.01319 896.000
29.17543 954.000
29.33767 827.000
29.49991 760.000
29.66216 841.000
29.82440 1238.000
29.98664 1118.000
30.14888 983.000
30.31112 828.000
30.47336 888.000
30.63560 555.000
30.79784 576.000
30.96008 653.000
31.12232 792.000
31.28456 787.000
31.44680 717.000
31.60905 803.000
31.77129 880.000
31.93353 786.000
32.09577 801.000
32.25801 616.000
32.42025 594.000
32.58249 542.000
32.74473 557.000
32.90697 585.000
33.06921 690.000
33.23145 678.000
33.39369 778.000
33.55594 649.000
33.71818 560.000
33.88042 556.000
34.04266 592.000
34.20490 621.000
34.36714 629.000
34.52938 892.000
34.69162 848.000
34.85386 799.000
35.01610 930.000
35.17834 770.000
35.34058 666.000
35.50283 550.000
35.66507 569.000
35.82731 494.000
35.98955 514.000
36.15179 661.000
36.31403 723.000
36.47627 688.000
36.63851 704.000
36.80075 748.000
36.96299 623.000
37.12523 645.000
37.28748 661.000
37.44972 575.000
37.61196 545.000
37.77420 612.000
37.93644 665.000
38.09868 698.000
38.26092 568.000
38.42316 603.000
38.58540 536.000
38.74764 541.000
38.90988 542.000
39.07212 588.000
39.23437 594.000
39.39661 548.000
39.55885 667.000
39.72109 618.000
39.88333 598.000
40.04557 610.000
40.20781 750.000
40.37005 740.000
40.53229 764.000
40.69453 599.000
40.85677 510.000
41.01901 555.000
41.18126 567.000
41.34350 610.000
41.50574 615.000
41.66798 637.000
41.83022 646.000
41.99246 503.000
42.15470 430.000
42.31694 490.000
42.47918 457.000
42.64142 488.000
42.80366 499.000
42.96590 516.000
43.12815 527.000
43.29039 629.000
43.45263 620.000
43.61487 647.000
43.77711 640.000
43.93935 662.000
44.10159 590.000
44.26383 591.000
44.42607 564.000
44.58831 526.000
44.75055 558.000
44.91280 516.000
45.07504 540.000
45.23728 547.000
45.39952 499.000
45.56176 553.000
45.72400 501.000
45.88624 511.000
46.04848 503.000
46.21072 515.000
46.37296 555.000
46.53520 581.000
46.69744 563.000
46.85969 508.000
47.02193 502.000
47.18417 536.000
47.34641 565.000
47.50865 548.000
47.67089 481.000
47.83313 492.000
47.99537 486.000
48.15761 447.000
48.31985 422.000
48.48209 457.000
48.64433 416.000
48.80658 454.000
48.96882 437.000
49.13106 447.000
49.29330 443.000
49.45554 415.000
49.61778 434.000
49.78002 441.000
49.94226 440.000
50.00310 439.000