File: Task01/nick/files/ESI_material_XRD/steady_state/crystal_size_analysis/Volumes_Ace/1911_RVR_20ul_mill_Ace.xy
5.00155 908.000
5.16379 790.000
5.32603 656.000
5.48827 658.000
5.65051 638.000
5.81275 548.000
5.97499 518.000
6.13723 497.000
6.29947 514.000
6.46171 631.000
6.62395 1309.000
6.78620 4787.000
6.94844 768.000
7.11068 491.000
7.27292 433.000
7.43516 452.000
7.59740 426.000
7.75964 398.000
7.92188 426.000
8.08412 632.000
8.24636 2059.000
8.40860 3319.000
8.57084 618.000
8.73309 429.000
8.89533 372.000
9.05757 334.000
9.21981 326.000
9.38205 367.000
9.54429 374.000
9.70653 331.000
9.86877 370.000
10.03101 346.000
10.19325 357.000
10.35549 410.000
10.51773 878.000
10.67998 400.000
10.84222 345.000
11.00446 330.000
11.16670 305.000
11.32894 282.000
11.49118 352.000
11.65342 304.000
11.81566 275.000
11.97790 290.000
12.14014 288.000
12.30238 272.000
12.46463 287.000
12.62687 307.000
12.78911 342.000
12.95135 343.000
13.11359 549.000
13.27583 729.000
13.43807 848.000
13.60031 916.000
13.76255 433.000
13.92479 375.000
14.08703 351.000
14.24927 355.000
14.41152 430.000
14.57376 1082.000
14.73600 926.000
14.89824 1209.000
15.06048 398.000
15.22272 379.000
15.38496 388.000
15.54720 361.000
15.70944 400.000
15.87168 414.000
16.03392 550.000
16.19616 977.000
16.35841 2598.000
16.52065 1279.000
16.68289 1762.000
16.84513 1647.000
17.00737 2573.000
17.16961 2306.000
17.33185 750.000
17.49409 564.000
17.65633 702.000
17.81857 1142.000
17.98081 3279.000
18.14305 4103.000
18.30530 1088.000
18.46754 1103.000
18.62978 2467.000
18.79202 1678.000
18.95426 1206.000
19.11650 964.000
19.27874 1072.000
19.44098 2768.000
19.60322 1912.000
19.76546 1869.000
19.92770 3092.000
20.08995 1967.000
20.25219 2740.000
20.41443 1769.000
20.57667 971.000
20.73891 738.000
20.90115 824.000
21.06339 1198.000
21.22563 2536.000
21.38787 6360.000
21.55011 7957.000
21.71235 3718.000
21.87459 1019.000
22.03684 798.000
22.19908 821.000
22.36132 997.000
22.52356 1173.000
22.68580 927.000
22.84804 1152.000
23.01028 1087.000
23.17252 831.000
23.33476 1468.000
23.49700 2636.000
23.65924 1515.000
23.82148 1070.000
23.98373 755.000
24.14597 839.000
24.30821 1589.000
24.47045 1160.000
24.63269 887.000
24.79493 875.000
24.95717 778.000
25.11941 1311.000
25.28165 1263.000
25.44389 1179.000
25.60613 701.000
25.76837 715.000
25.93062 1223.000
26.09286 1306.000
26.25510 892.000
26.41734 1121.000
26.57958 1325.000
26.74182 1039.000
26.90406 1358.000
27.06630 1195.000
27.22854 961.000
27.39078 1035.000
27.55302 886.000
27.71526 496.000
27.87751 460.000
28.03975 486.000
28.20199 630.000
28.36423 828.000
28.52647 954.000
28.68871 714.000
28.85095 661.000
29.01319 904.000
29.17543 764.000
29.33767 741.000
29.49991 694.000
29.66216 826.000
29.82440 938.000
29.98664 834.000
30.14888 650.000
30.31112 633.000
30.47336 596.000
30.63560 465.000
30.79784 429.000
30.96008 533.000
31.12232 638.000
31.28456 497.000
31.44680 457.000
31.60905 487.000
31.77129 590.000
31.93353 584.000
32.09577 584.000
32.25801 505.000
32.42025 469.000
32.58249 428.000
32.74473 510.000
32.90697 556.000
33.06921 567.000
33.23145 597.000
33.39369 546.000
33.55594 484.000
33.71818 442.000
33.88042 492.000
34.04266 555.000
34.20490 567.000
34.36714 708.000
34.52938 989.000
34.69162 818.000
34.85386 729.000
35.01610 687.000
35.17834 495.000
35.34058 510.000
35.50283 509.000
35.66507 506.000
35.82731 460.000
35.98955 427.000
36.15179 507.000
36.31403 527.000
36.47627 585.000
36.63851 715.000
36.80075 679.000
36.96299 592.000
37.12523 535.000
37.28748 513.000
37.44972 463.000
37.61196 499.000
37.77420 504.000
37.93644 627.000
38.09868 539.000
38.26092 498.000
38.42316 502.000
38.58540 473.000
38.74764 418.000
38.90988 402.000
39.07212 438.000
39.23437 460.000
39.39661 539.000
39.55885 534.000
39.72109 559.000
39.88333 502.000
40.04557 641.000
40.20781 665.000
40.37005 649.000
40.53229 531.000
40.69453 434.000
40.85677 455.000
41.01901 453.000
41.18126 508.000
41.34350 597.000
41.50574 636.000
41.66798 639.000
41.83022 604.000
41.99246 420.000
42.15470 443.000
42.31694 417.000
42.47918 387.000
42.64142 390.000
42.80366 413.000
42.96590 445.000
43.12815 484.000
43.29039 583.000
43.45263 562.000
43.61487 543.000
43.77711 535.000
43.93935 592.000
44.10159 541.000
44.26383 522.000
44.42607 445.000
44.58831 453.000
44.75055 473.000
44.91280 454.000
45.07504 456.000
45.23728 421.000
45.39952 462.000
45.56176 457.000
45.72400 455.000
45.88624 450.000
46.04848 445.000
46.21072 491.000
46.37296 501.000
46.53520 460.000
46.69744 482.000
46.85969 403.000
47.02193 424.000
47.18417 439.000
47.34641 503.000
47.50865 476.000
47.67089 451.000
47.83313 393.000
47.99537 419.000
48.15761 375.000
48.31985 400.000
48.48209 424.000
48.64433 403.000
48.80658 345.000
48.96882 372.000
49.13106 380.000
49.29330 390.000
49.45554 381.000
49.61778 415.000
49.78002 405.000
49.94226 390.000
50.00310 373.000