File: Task01/nick/files/ESI_material_XRD/steady_state/crystal_size_analysis/Volumes_Ace/1912_RVR_10ul_mill_Ace.xy
5.00155 1075.000
5.16379 1077.000
5.32603 1018.000
5.48827 932.000
5.65051 1008.000
5.81275 921.000
5.97499 895.000
6.13723 930.000
6.29947 984.000
6.46171 985.000
6.62395 988.000
6.78620 1102.000
6.94844 1008.000
7.11068 973.000
7.27292 907.000
7.43516 948.000
7.59740 962.000
7.75964 888.000
7.92188 920.000
8.08412 939.000
8.24636 952.000
8.40860 957.000
8.57084 905.000
8.73309 927.000
8.89533 845.000
9.05757 848.000
9.21981 783.000
9.38205 867.000
9.54429 783.000
9.70653 836.000
9.86877 792.000
10.03101 814.000
10.19325 824.000
10.35549 806.000
10.51773 788.000
10.67998 846.000
10.84222 797.000
11.00446 798.000
11.16670 790.000
11.32894 785.000
11.49118 763.000
11.65342 730.000
11.81566 801.000
11.97790 865.000
12.14014 779.000
12.30238 848.000
12.46463 796.000
12.62687 826.000
12.78911 831.000
12.95135 906.000
13.11359 874.000
13.27583 925.000
13.43807 886.000
13.60031 921.000
13.76255 975.000
13.92479 996.000
14.08703 966.000
14.24927 983.000
14.41152 1063.000
14.57376 1058.000
14.73600 1088.000
14.89824 1053.000
15.06048 1101.000
15.22272 1241.000
15.38496 1130.000
15.54720 1237.000
15.70944 1298.000
15.87168 1261.000
16.03392 1322.000
16.19616 1406.000
16.35841 1436.000
16.52065 1526.000
16.68289 1584.000
16.84513 1586.000
17.00737 1650.000
17.16961 1769.000
17.33185 1675.000
17.49409 1672.000
17.65633 1797.000
17.81857 1870.000
17.98081 1906.000
18.14305 2118.000
18.30530 2049.000
18.46754 1911.000
18.62978 2110.000
18.79202 2071.000
18.95426 2055.000
19.11650 2130.000
19.27874 2169.000
19.44098 2188.000
19.60322 2088.000
19.76546 2088.000
19.92770 2113.000
20.08995 2144.000
20.25219 2076.000
20.41443 2119.000
20.57667 2018.000
20.73891 2018.000
20.90115 1890.000
21.06339 1860.000
21.22563 2039.000
21.38787 2117.000
21.55011 2009.000
21.71235 1910.000
21.87459 1786.000
22.03684 1669.000
22.19908 1568.000
22.36132 1564.000
22.52356 1537.000
22.68580 1438.000
22.84804 1492.000
23.01028 1438.000
23.17252 1361.000
23.33476 1434.000
23.49700 1418.000
23.65924 1331.000
23.82148 1313.000
23.98373 1309.000
24.14597 1252.000
24.30821 1312.000
24.47045 1210.000
24.63269 1202.000
24.79493 1215.000
24.95717 1092.000
25.11941 1140.000
25.28165 1125.000
25.44389 1213.000
25.60613 1033.000
25.76837 1021.000
25.93062 1054.000
26.09286 1001.000
26.25510 1050.000
26.41734 935.000
26.57958 1037.000
26.74182 980.000
26.90406 945.000
27.06630 953.000
27.22854 905.000
27.39078 967.000
27.55302 881.000
27.71526 899.000
27.87751 865.000
28.03975 787.000
28.20199 824.000
28.36423 827.000
28.52647 794.000
28.68871 820.000
28.85095 868.000
29.01319 809.000
29.17543 805.000
29.33767 804.000
29.49991 760.000
29.66216 796.000
29.82440 739.000
29.98664 761.000
30.14888 720.000
30.31112 690.000
30.47336 706.000
30.63560 675.000
30.79784 663.000
30.96008 646.000
31.12232 624.000
31.28456 621.000
31.44680 648.000
31.60905 684.000
31.77129 659.000
31.93353 589.000
32.09577 669.000
32.25801 593.000
32.42025 632.000
32.58249 620.000
32.74473 571.000
32.90697 618.000
33.06921 607.000
33.23145 566.000
33.39369 655.000
33.55594 548.000
33.71818 552.000
33.88042 587.000
34.04266 603.000
34.20490 580.000
34.36714 590.000
34.52938 584.000
34.69162 633.000
34.85386 601.000
35.01610 570.000
35.17834 621.000
35.34058 597.000
35.50283 572.000
35.66507 560.000
35.82731 588.000
35.98955 561.000
36.15179 552.000
36.31403 552.000
36.47627 550.000
36.63851 545.000
36.80075 541.000
36.96299 529.000
37.12523 547.000
37.28748 547.000
37.44972 565.000
37.61196 546.000
37.77420 569.000
37.93644 557.000
38.09868 542.000
38.26092 543.000
38.42316 502.000
38.58540 520.000
38.74764 550.000
38.90988 573.000
39.07212 548.000
39.23437 530.000
39.39661 545.000
39.55885 552.000
39.72109 550.000
39.88333 562.000
40.04557 544.000
40.20781 569.000
40.37005 529.000
40.53229 539.000
40.69453 545.000
40.85677 544.000
41.01901 525.000
41.18126 542.000
41.34350 550.000
41.50574 508.000
41.66798 561.000
41.83022 540.000
41.99246 547.000
42.15470 565.000
42.31694 507.000
42.47918 530.000
42.64142 534.000
42.80366 516.000
42.96590 564.000
43.12815 524.000
43.29039 499.000
43.45263 528.000
43.61487 505.000
43.77711 511.000
43.93935 530.000
44.10159 503.000
44.26383 502.000
44.42607 511.000
44.58831 511.000
44.75055 506.000
44.91280 469.000
45.07504 520.000
45.23728 517.000
45.39952 474.000
45.56176 498.000
45.72400 468.000
45.88624 493.000
46.04848 500.000
46.21072 547.000
46.37296 498.000
46.53520 479.000
46.69744 489.000
46.85969 492.000
47.02193 472.000
47.18417 463.000
47.34641 459.000
47.50865 436.000
47.67089 454.000
47.83313 474.000
47.99537 430.000
48.15761 405.000
48.31985 415.000
48.48209 445.000
48.64433 428.000
48.80658 443.000
48.96882 421.000
49.13106 434.000
49.29330 437.000
49.45554 389.000
49.61778 438.000
49.78002 402.000
49.94226 407.000
50.00310 437.000