File: Task01/nick/files/ESI_material_XRD/steady_state/crystal_size_analysis/Volumes_Ace/1964_RVR_50ul_mill_Ace_051120.xy
5.00155 866.000
5.16379 778.000
5.32603 702.000
5.48827 689.000
5.65051 680.000
5.81275 594.000
5.97499 550.000
6.13723 557.000
6.29947 669.000
6.46171 601.000
6.62395 413.000
6.78620 423.000
6.94844 418.000
7.11068 393.000
7.27292 332.000
7.43516 323.000
7.59740 315.000
7.75964 307.000
7.92188 312.000
8.08412 301.000
8.24636 387.000
8.40860 667.000
8.57084 3496.000
8.73309 904.000
8.89533 457.000
9.05757 362.000
9.21981 465.000
9.38205 1430.000
9.54429 991.000
9.70653 1032.000
9.86877 2298.000
10.03101 502.000
10.19325 360.000
10.35549 416.000
10.51773 329.000
10.67998 398.000
10.84222 1168.000
11.00446 682.000
11.16670 365.000
11.32894 302.000
11.49118 287.000
11.65342 306.000
11.81566 274.000
11.97790 237.000
12.14014 318.000
12.30238 352.000
12.46463 285.000
12.62687 279.000
12.78911 300.000
12.95135 404.000
13.11359 394.000
13.27583 622.000
13.43807 434.000
13.60031 1287.000
13.76255 1769.000
13.92479 427.000
14.08703 324.000
14.24927 346.000
14.41152 303.000
14.57376 338.000
14.73600 463.000
14.89824 550.000
15.06048 344.000
15.22272 364.000
15.38496 407.000
15.54720 733.000
15.70944 562.000
15.87168 860.000
16.03392 2977.000
16.19616 695.000
16.35841 1112.000
16.52065 1361.000
16.68289 1940.000
16.84513 582.000
17.00737 617.000
17.16961 1537.000
17.33185 3434.000
17.49409 982.000
17.65633 3926.000
17.81857 2388.000
17.98081 935.000
18.14305 1724.000
18.30530 5361.000
18.46754 1521.000
18.62978 899.000
18.79202 2089.000
18.95426 1834.000
19.11650 832.000
19.27874 1239.000
19.44098 2234.000
19.60322 1606.000
19.76546 2591.000
19.92770 3086.000
20.08995 2392.000
20.25219 1480.000
20.41443 1549.000
20.57667 3538.000
20.73891 1051.000
20.90115 980.000
21.06339 832.000
21.22563 1289.000
21.38787 2512.000
21.55011 3511.000
21.71235 3166.000
21.87459 1045.000
22.03684 1599.000
22.19908 1805.000
22.36132 720.000
22.52356 997.000
22.68580 1463.000
22.84804 817.000
23.01028 821.000
23.17252 676.000
23.33476 1105.000
23.49700 1023.000
23.65924 999.000
23.82148 961.000
23.98373 1183.000
24.14597 1280.000
24.30821 839.000
24.47045 711.000
24.63269 1066.000
24.79493 1114.000
24.95717 679.000
25.11941 1074.000
25.28165 2254.000
25.44389 1300.000
25.60613 799.000
25.76837 1189.000
25.93062 1002.000
26.09286 1593.000
26.25510 1142.000
26.41734 1095.000
26.57958 719.000
26.74182 626.000
26.90406 800.000
27.06630 478.000
27.22854 564.000
27.39078 593.000
27.55302 604.000
27.71526 456.000
27.87751 434.000
28.03975 460.000
28.20199 472.000
28.36423 811.000
28.52647 1617.000
28.68871 1068.000
28.85095 627.000
29.01319 431.000
29.17543 527.000
29.33767 369.000
29.49991 500.000
29.66216 926.000
29.82440 1145.000
29.98664 1006.000
30.14888 939.000
30.31112 652.000
30.47336 458.000
30.63560 456.000
30.79784 572.000
30.96008 528.000
31.12232 587.000
31.28456 798.000
31.44680 843.000
31.60905 1265.000
31.77129 819.000
31.93353 731.000
32.09577 656.000
32.25801 509.000
32.42025 527.000
32.58249 442.000
32.74473 412.000
32.90697 468.000
33.06921 604.000
33.23145 518.000
33.39369 477.000
33.55594 636.000
33.71818 614.000
33.88042 461.000
34.04266 412.000
34.20490 417.000
34.36714 335.000
34.52938 424.000
34.69162 463.000
34.85386 640.000
35.01610 746.000
35.17834 707.000
35.34058 594.000
35.50283 451.000
35.66507 394.000
35.82731 483.000
35.98955 614.000
36.15179 859.000
36.31403 705.000
36.47627 495.000
36.63851 462.000
36.80075 432.000
36.96299 387.000
37.12523 538.000
37.28748 539.000
37.44972 410.000
37.61196 377.000
37.77420 434.000
37.93644 502.000
38.09868 434.000
38.26092 563.000
38.42316 615.000
38.58540 433.000
38.74764 457.000
38.90988 592.000
39.07212 670.000
39.23437 429.000
39.39661 443.000
39.55885 528.000
39.72109 473.000
39.88333 482.000
40.04557 454.000
40.20781 516.000
40.37005 673.000
40.53229 796.000
40.69453 614.000
40.85677 417.000
41.01901 455.000
41.18126 399.000
41.34350 401.000
41.50574 359.000
41.66798 394.000
41.83022 374.000
41.99246 361.000
42.15470 366.000
42.31694 424.000
42.47918 480.000
42.64142 426.000
42.80366 408.000
42.96590 427.000
43.12815 471.000
43.29039 483.000
43.45263 452.000
43.61487 498.000
43.77711 470.000
43.93935 384.000
44.10159 461.000
44.26383 488.000
44.42607 603.000
44.58831 603.000
44.75055 546.000
44.91280 441.000
45.07504 479.000
45.23728 455.000
45.39952 501.000
45.56176 463.000
45.72400 431.000
45.88624 429.000
46.04848 447.000
46.21072 488.000
46.37296 502.000
46.53520 526.000
46.69744 447.000
46.85969 415.000
47.02193 438.000
47.18417 446.000
47.34641 468.000
47.50865 462.000
47.67089 442.000
47.83313 454.000
47.99537 461.000
48.15761 411.000
48.31985 459.000
48.48209 387.000
48.64433 423.000
48.80658 440.000
48.96882 457.000
49.13106 477.000
49.29330 417.000
49.45554 357.000
49.61778 376.000
49.78002 387.000
49.94226 393.000
50.00310 394.000