File: Task01/nick/files/ESI_material_XRD/steady_state/crystal_size_analysis/Volumes_IPA/RVR_IPA_30uL.xy
4.00155 2284.000
4.12323 1925.000
4.24491 1699.000
4.36659 1441.000
4.48827 1294.000
4.60995 1231.000
4.73163 1083.000
4.85331 1066.000
4.97499 942.000
5.09667 961.000
5.21835 769.000
5.34003 766.000
5.46171 730.000
5.58339 712.000
5.70507 620.000
5.82676 609.000
5.94844 624.000
6.07012 551.000
6.19180 585.000
6.31348 766.000
6.43516 912.000
6.55684 550.000
6.67852 603.000
6.80020 834.000
6.92188 532.000
7.04356 467.000
7.16524 418.000
7.28692 416.000
7.40860 430.000
7.53028 435.000
7.65197 440.000
7.77365 456.000
7.89533 459.000
8.01701 420.000
8.13869 482.000
8.26037 663.000
8.38205 1125.000
8.50373 2099.000
8.62541 5575.000
8.74709 1183.000
8.86877 606.000
8.99045 495.000
9.11213 514.000
9.23381 600.000
9.35549 1304.000
9.47717 3050.000
9.59886 854.000
9.72054 1351.000
9.84222 4007.000
9.96390 974.000
10.08558 576.000
10.20726 449.000
10.32894 535.000
10.45062 530.000
10.57230 505.000
10.69398 468.000
10.81566 1008.000
10.93734 2370.000
11.05902 599.000
11.18070 416.000
11.30238 387.000
11.42406 362.000
11.54575 361.000
11.66743 361.000
11.78911 403.000
11.91079 347.000
12.03247 398.000
12.15415 338.000
12.27583 391.000
12.39751 365.000
12.51919 343.000
12.64087 369.000
12.76255 394.000
12.88423 481.000
13.00591 563.000
13.12759 555.000
13.24927 947.000
13.37096 572.000
13.49264 717.000
13.61432 1648.000
13.73600 2291.000
13.85768 1130.000
13.97936 523.000
14.10104 434.000
14.22272 404.000
14.34440 380.000
14.46608 430.000
14.58776 521.000
14.70944 557.000
14.83112 796.000
14.95280 561.000
15.07448 398.000
15.19616 391.000
15.31785 456.000
15.43953 541.000
15.56121 919.000
15.68289 820.000
15.80457 714.000
15.92625 1463.000
16.04793 3602.000
16.16961 1230.000
16.29129 1022.000
16.41297 1592.000
16.53465 1658.000
16.65633 3095.000
16.77801 1171.000
16.89969 803.000
17.02137 972.000
17.14305 1538.000
17.26474 3403.000
17.38642 2781.000
17.50810 1425.000
17.62978 2966.000
17.75146 6612.000
17.87314 1936.000
17.99482 1446.000
18.11650 1990.000
18.23818 3886.000
18.35986 6654.000
18.48154 2014.000
18.60322 1136.000
18.72490 1566.000
18.84658 2907.000
18.96826 2287.000
19.08995 1227.000
19.21163 1228.000
19.33331 1658.000
19.45499 2940.000
19.57667 2082.000
19.69835 2580.000
19.82003 2816.000
19.94171 3566.000
20.06339 4035.000
20.18507 1882.000
20.30675 2180.000
20.42843 1903.000
20.55011 3253.000
20.67179 2809.000
20.79347 1162.000
20.91515 1249.000
21.03684 988.000
21.15852 1173.000
21.28020 1841.000
21.40188 3168.000
21.52356 3753.000
21.64524 5770.000
21.76692 2507.000
21.88860 1322.000
22.01028 1507.000
22.13196 2402.000
22.25364 1613.000
22.37532 967.000
22.49700 1140.000
22.61868 1255.000
22.74036 1689.000
22.86204 990.000
22.98373 910.000
23.10541 876.000
23.22709 829.000
23.34877 1396.000
23.47045 1496.000
23.59213 1171.000
23.71381 1103.000
23.83549 1156.000
23.95717 1446.000
24.07885 1434.000
24.20053 1389.000
24.32221 1012.000
24.44389 1101.000
24.56557 930.000
24.68725 1258.000
24.80893 1289.000
24.93062 914.000
25.05230 912.000
25.17398 1510.000
25.29566 2625.000
25.41734 1829.000
25.53902 975.000
25.66070 958.000
25.78238 1311.000
25.90406 1175.000
26.02574 1572.000
26.14742 1588.000
26.26910 1335.000
26.39078 1305.000
26.51246 1113.000
26.63414 763.000
26.75583 748.000
26.87751 974.000
26.99919 777.000
27.12087 607.000
27.24255 693.000
27.36423 695.000
27.48591 772.000
27.60759 604.000
27.72927 481.000
27.85095 516.000
27.97263 577.000
28.09431 528.000
28.21599 571.000
28.33767 745.000
28.45935 1235.000
28.58103 1727.000
28.70272 1270.000
28.82440 802.000
28.94608 600.000
29.06776 543.000
29.18944 632.000
29.31112 535.000
29.43280 511.000
29.55448 670.000
29.67616 982.000
29.79784 1366.000
29.91952 1140.000
30.04120 1199.000
30.16288 953.000
30.28456 800.000
30.40624 632.000
30.52792 524.000
30.64961 528.000
30.77129 584.000
30.89297 629.000
31.01465 638.000
31.13633 635.000
31.25801 829.000
31.37969 873.000
31.50137 950.000
31.62305 1324.000
31.74473 1077.000
31.86641 830.000
31.98809 881.000
32.10977 762.000
32.23145 587.000
32.35313 669.000
32.47482 506.000
32.59650 472.000
32.71818 463.000
32.83986 475.000
32.96154 574.000
33.08322 641.000
33.20490 650.000
33.32658 545.000
33.44826 604.000
33.56994 682.000
33.69162 687.000
33.81330 549.000
33.93498 486.000
34.05666 477.000
34.17834 498.000
34.30002 410.000
34.42171 384.000
34.54339 450.000
34.66507 531.000
34.78675 612.000
34.90843 750.000
35.03011 836.000
35.15179 772.000
35.27347 747.000
35.39515 571.000
35.51683 510.000
35.63851 499.000
35.76019 478.000
35.88187 540.000
36.00355 663.000
36.12523 811.000
36.24691 787.000
36.36860 667.000
36.49028 578.000
36.61196 526.000
36.73364 499.000
36.85532 484.000
36.97700 463.000
37.09868 497.000
37.22036 597.000
37.34204 575.000
37.46372 500.000
37.58540 438.000
37.70708 465.000
37.82876 524.000
37.95044 545.000
38.07212 523.000
38.19381 580.000
38.31549 657.000
38.43717 621.000
38.55885 552.000
38.68053 507.000
38.80221 598.000
38.92389 677.000
39.04557 805.000
39.16725 609.000
39.28893 487.000
39.41061 506.000
39.53229 551.000
39.65397 538.000
39.77565 502.000
39.89733 491.000
39.99873 554.000