File: Task01/nick/files/ESI_material_XRD/steady_state/crystal_size_analysis/Volumes_IPA/RVR_IPA_40uL.xy
4.00155 2198.000
4.12323 1817.000
4.24491 1661.000
4.36659 1321.000
4.48827 1200.000
4.60995 1147.000
4.73163 1031.000
4.85331 979.000
4.97499 925.000
5.09667 875.000
5.21835 820.000
5.34003 769.000
5.46171 651.000
5.58339 618.000
5.70507 578.000
5.82676 613.000
5.94844 530.000
6.07012 525.000
6.19180 531.000
6.31348 663.000
6.43516 908.000
6.55684 467.000
6.67852 396.000
6.80020 452.000
6.92188 417.000
7.04356 413.000
7.16524 375.000
7.28692 357.000
7.40860 342.000
7.53028 372.000
7.65197 385.000
7.77365 371.000
7.89533 388.000
8.01701 331.000
8.13869 391.000
8.26037 468.000
8.38205 622.000
8.50373 1720.000
8.62541 5653.000
8.74709 1360.000
8.86877 595.000
8.99045 489.000
9.11213 419.000
9.23381 546.000
9.35549 1089.000
9.47717 3328.000
9.59886 1083.000
9.72054 1222.000
9.84222 3948.000
9.96390 1118.000
10.08558 551.000
10.20726 428.000
10.32894 427.000
10.45062 516.000
10.57230 444.000
10.69398 413.000
10.81566 792.000
10.93734 2387.000
11.05902 675.000
11.18070 420.000
11.30238 364.000
11.42406 380.000
11.54575 332.000
11.66743 341.000
11.78911 319.000
11.91079 328.000
12.03247 340.000
12.15415 327.000
12.27583 356.000
12.39751 422.000
12.51919 345.000
12.64087 349.000
12.76255 324.000
12.88423 419.000
13.00591 528.000
13.12759 500.000
13.24927 918.000
13.37096 547.000
13.49264 587.000
13.61432 1500.000
13.73600 2548.000
13.85768 1429.000
13.97936 465.000
14.10104 401.000
14.22272 366.000
14.34440 399.000
14.46608 361.000
14.58776 389.000
14.70944 422.000
14.83112 777.000
14.95280 588.000
15.07448 420.000
15.19616 396.000
15.31785 405.000
15.43953 488.000
15.56121 898.000
15.68289 887.000
15.80457 694.000
15.92625 1376.000
16.04793 4271.000
16.16961 1581.000
16.29129 931.000
16.41297 1366.000
16.53465 1552.000
16.65633 3631.000
16.77801 1142.000
16.89969 673.000
17.02137 733.000
17.14305 1134.000
17.26474 3602.000
17.38642 3503.000
17.50810 1124.000
17.62978 2529.000
17.75146 7662.000
17.87314 2114.000
17.99482 1196.000
18.11650 1316.000
18.23818 3915.000
18.35986 8052.000
18.48154 2463.000
18.60322 994.000
18.72490 1316.000
18.84658 3302.000
18.96826 2810.000
19.08995 1265.000
19.21163 1119.000
19.33331 1594.000
19.45499 3246.000
19.57667 2089.000
19.69835 2650.000
19.82003 2914.000
19.94171 3712.000
20.06339 4924.000
20.18507 1870.000
20.30675 2215.000
20.42843 1712.000
20.55011 3654.000
20.67179 3419.000
20.79347 1222.000
20.91515 1368.000
21.03684 1027.000
21.15852 1156.000
21.28020 1665.000
21.40188 3134.000
21.52356 3635.000
21.64524 6666.000
21.76692 2929.000
21.88860 1357.000
22.01028 1607.000
22.13196 2957.000
22.25364 1901.000
22.37532 972.000
22.49700 1114.000
22.61868 1343.000
22.74036 1953.000
22.86204 1011.000
22.98373 1025.000
23.10541 971.000
23.22709 831.000
23.34877 1479.000
23.47045 1654.000
23.59213 1117.000
23.71381 1168.000
23.83549 1169.000
23.95717 1585.000
24.07885 1668.000
24.20053 1607.000
24.32221 1037.000
24.44389 1154.000
24.56557 869.000
24.68725 1605.000
24.80893 1456.000
24.93062 991.000
25.05230 818.000
25.17398 1542.000
25.29566 3207.000
25.41734 2226.000
25.53902 1117.000
25.66070 1007.000
25.78238 1487.000
25.90406 1152.000
26.02574 1531.000
26.14742 1939.000
26.26910 1555.000
26.39078 1462.000
26.51246 1330.000
26.63414 753.000
26.75583 747.000
26.87751 1201.000
26.99919 796.000
27.12087 583.000
27.24255 685.000
27.36423 782.000
27.48591 806.000
27.60759 675.000
27.72927 537.000
27.85095 573.000
27.97263 609.000
28.09431 594.000
28.21599 568.000
28.33767 699.000
28.45935 1301.000
28.58103 2040.000
28.70272 1547.000
28.82440 1009.000
28.94608 570.000
29.06776 561.000
29.18944 651.000
29.31112 577.000
29.43280 502.000
29.55448 645.000
29.67616 1057.000
29.79784 1564.000
29.91952 1252.000
30.04120 1322.000
30.16288 1162.000
30.28456 947.000
30.40624 736.000
30.52792 513.000
30.64961 592.000
30.77129 702.000
30.89297 792.000
31.01465 736.000
31.13633 715.000
31.25801 865.000
31.37969 993.000
31.50137 1081.000
31.62305 1565.000
31.74473 1223.000
31.86641 914.000
31.98809 976.000
32.10977 857.000
32.23145 597.000
32.35313 749.000
32.47482 595.000
32.59650 542.000
32.71818 515.000
32.83986 522.000
32.96154 524.000
33.08322 755.000
33.20490 760.000
33.32658 556.000
33.44826 635.000
33.56994 766.000
33.69162 811.000
33.81330 624.000
33.93498 505.000
34.05666 475.000
34.17834 529.000
34.30002 427.000
34.42171 453.000
34.54339 478.000
34.66507 560.000
34.78675 642.000
34.90843 804.000
35.03011 1027.000
35.15179 895.000
35.27347 947.000
35.39515 653.000
35.51683 541.000
35.63851 509.000
35.76019 528.000
35.88187 595.000
36.00355 742.000
36.12523 962.000
36.24691 1068.000
36.36860 904.000
36.49028 654.000
36.61196 548.000
36.73364 607.000
36.85532 546.000
36.97700 483.000
37.09868 570.000
37.22036 687.000
37.34204 648.000
37.46372 522.000
37.58540 436.000
37.70708 458.000
37.82876 540.000
37.95044 636.000
38.07212 545.000
38.19381 652.000
38.31549 727.000
38.43717 717.000
38.55885 636.000
38.68053 572.000
38.80221 630.000
38.92389 760.000
39.04557 895.000
39.16725 696.000
39.28893 524.000
39.41061 587.000
39.53229 647.000
39.65397 644.000
39.77565 549.000
39.89733 567.000
39.99873 606.000