File: Task01/nick/files/ESI_material_XRD/steady_state/crystal_size_analysis/Volumes_IPA/RVR_IPA_10uL.xy
4.00155 2847.000
4.12323 2491.000
4.24491 2175.000
4.36659 1915.000
4.48827 1596.000
4.60995 1479.000
4.73163 1251.000
4.85331 1151.000
4.97499 1071.000
5.09667 1014.000
5.21835 934.000
5.34003 897.000
5.46171 794.000
5.58339 724.000
5.70507 673.000
5.82676 644.000
5.94844 584.000
6.07012 556.000
6.19180 526.000
6.31348 537.000
6.43516 569.000
6.55684 784.000
6.67852 1688.000
6.80020 4739.000
6.92188 1952.000
7.04356 619.000
7.16524 529.000
7.28692 481.000
7.40860 458.000
7.53028 419.000
7.65197 412.000
7.77365 363.000
7.89533 408.000
8.01701 474.000
8.13869 748.000
8.26037 1919.000
8.38205 5158.000
8.50373 1413.000
8.62541 964.000
8.74709 532.000
8.86877 483.000
8.99045 404.000
9.11213 375.000
9.23381 380.000
9.35549 413.000
9.47717 575.000
9.59886 380.000
9.72054 421.000
9.84222 640.000
9.96390 461.000
10.08558 449.000
10.20726 382.000
10.32894 395.000
10.45062 575.000
10.57230 1105.000
10.69398 462.000
10.81566 426.000
10.93734 506.000
11.05902 402.000
11.18070 353.000
11.30238 355.000
11.42406 353.000
11.54575 337.000
11.66743 327.000
11.78911 317.000
11.91079 312.000
12.03247 355.000
12.15415 340.000
12.27583 334.000
12.39751 369.000
12.51919 405.000
12.64087 350.000
12.76255 356.000
12.88423 373.000
13.00591 421.000
13.12759 573.000
13.24927 735.000
13.37096 967.000
13.49264 1170.000
13.61432 1162.000
13.73600 789.000
13.85768 441.000
13.97936 390.000
14.10104 384.000
14.22272 440.000
14.34440 449.000
14.46608 507.000
14.58776 1065.000
14.70944 1774.000
14.83112 946.000
14.95280 1211.000
15.07448 531.000
15.19616 453.000
15.31785 433.000
15.43953 444.000
15.56121 462.000
15.68289 483.000
15.80457 484.000
15.92625 546.000
16.04793 787.000
16.16961 820.000
16.29129 1762.000
16.41297 2934.000
16.53465 1533.000
16.65633 2133.000
16.77801 2539.000
16.89969 1763.000
17.02137 2572.000
17.14305 3869.000
17.26474 1438.000
17.38642 994.000
17.50810 720.000
17.62978 825.000
17.75146 1402.000
17.87314 1504.000
17.99482 3144.000
18.11650 6259.000
18.23818 2375.000
18.35986 1609.000
18.48154 1347.000
18.60322 2061.000
18.72490 2996.000
18.84658 1615.000
18.96826 1439.000
19.08995 1497.000
19.21163 934.000
19.33331 1275.000
19.45499 2811.000
19.57667 3386.000
19.69835 1757.000
19.82003 2481.000
19.94171 3863.000
20.06339 2369.000
20.18507 2648.000
20.30675 3550.000
20.42843 2426.000
20.55011 1294.000
20.67179 1109.000
20.79347 895.000
20.91515 933.000
21.03684 1111.000
21.15852 1744.000
21.28020 3131.000
21.40188 6553.000
21.52356 8785.000
21.64524 7879.000
21.76692 3670.000
21.88860 1388.000
22.01028 1010.000
22.13196 1014.000
22.25364 954.000
22.37532 1029.000
22.49700 1441.000
22.61868 1140.000
22.74036 1006.000
22.86204 1320.000
22.98373 1231.000
23.10541 1103.000
23.22709 944.000
23.34877 1518.000
23.47045 2613.000
23.59213 2701.000
23.71381 1621.000
23.83549 1304.000
23.95717 1030.000
24.07885 893.000
24.20053 1030.000
24.32221 1538.000
24.44389 2138.000
24.56557 1083.000
24.68725 1102.000
24.80893 1141.000
24.93062 887.000
25.05230 1092.000
25.17398 1587.000
25.29566 1608.000
25.41734 1326.000
25.53902 1219.000
25.66070 813.000
25.78238 795.000
25.90406 1064.000
26.02574 1641.000
26.14742 1548.000
26.26910 995.000
26.39078 1174.000
26.51246 1346.000
26.63414 1418.000
26.75583 1177.000
26.87751 1317.000
26.99919 1510.000
27.12087 1375.000
27.24255 1086.000
27.36423 1063.000
27.48591 1238.000
27.60759 931.000
27.72927 614.000
27.85095 543.000
27.97263 505.000
28.09431 494.000
28.21599 662.000
28.33767 818.000
28.45935 1046.000
28.58103 1132.000
28.70272 949.000
28.82440 742.000
28.94608 791.000
29.06776 999.000
29.18944 948.000
29.31112 838.000
29.43280 803.000
29.55448 804.000
29.67616 810.000
29.79784 1015.000
29.91952 1070.000
30.04120 1001.000
30.16288 801.000
30.28456 724.000
30.40624 840.000
30.52792 763.000
30.64961 519.000
30.77129 509.000
30.89297 516.000
31.01465 626.000
31.13633 727.000
31.25801 686.000
31.37969 593.000
31.50137 558.000
31.62305 635.000
31.74473 668.000
31.86641 690.000
31.98809 693.000
32.10977 644.000
32.23145 571.000
32.35313 590.000
32.47482 508.000
32.59650 493.000
32.71818 541.000
32.83986 544.000
32.96154 616.000
33.08322 641.000
33.20490 659.000
33.32658 713.000
33.44826 656.000
33.56994 576.000
33.69162 549.000
33.81330 523.000
33.93498 578.000
34.05666 626.000
34.17834 613.000
34.30002 679.000
34.42171 772.000
34.54339 1104.000
34.66507 1039.000
34.78675 827.000
34.90843 882.000
35.03011 859.000
35.15179 676.000
35.27347 587.000
35.39515 560.000
35.51683 612.000
35.63851 557.000
35.76019 515.000
35.88187 458.000
36.00355 542.000
36.12523 533.000
36.24691 578.000
36.36860 632.000
36.49028 657.000
36.61196 748.000
36.73364 832.000
36.85532 750.000
36.97700 704.000
37.09868 624.000
37.22036 679.000
37.34204 590.000
37.46372 560.000
37.58540 532.000
37.70708 578.000
37.82876 606.000
37.95044 676.000
38.07212 668.000
38.19381 576.000
38.31549 572.000
38.43717 585.000
38.55885 553.000
38.68053 535.000
38.80221 464.000
38.92389 504.000
39.04557 482.000
39.16725 532.000
39.28893 513.000
39.41061 605.000
39.53229 624.000
39.65397 679.000
39.77565 607.000
39.89733 540.000
39.99873 622.000