File: Task01/nick/files/ESI_material_XRD/kinetics/crystal_size_analysis/10ul IPA/2028_RVR_10ul_IPA_15m.xy
5.00155 1075.000
5.16379 796.000
5.32603 720.000
5.48827 675.000
5.65051 603.000
5.81275 586.000
5.97499 497.000
6.13723 597.000
6.29947 520.000
6.46171 623.000
6.62395 1318.000
6.78620 5364.000
6.94844 1230.000
7.11068 505.000
7.27292 417.000
7.43516 423.000
7.59740 398.000
7.75964 404.000
7.92188 480.000
8.08412 605.000
8.24636 2140.000
8.40860 5402.000
8.57084 778.000
8.73309 522.000
8.89533 448.000
9.05757 446.000
9.21981 440.000
9.38205 427.000
9.54429 399.000
9.70653 430.000
9.86877 514.000
10.03101 394.000
10.19325 416.000
10.35549 460.000
10.51773 983.000
10.67998 541.000
10.84222 404.000
11.00446 391.000
11.16670 345.000
11.32894 373.000
11.49118 382.000
11.65342 365.000
11.81566 339.000
11.97790 374.000
12.14014 329.000
12.30238 352.000
12.46463 389.000
12.62687 371.000
12.78911 345.000
12.95135 393.000
13.11359 629.000
13.27583 810.000
13.43807 1039.000
13.60031 1446.000
13.76255 585.000
13.92479 454.000
14.08703 377.000
14.24927 442.000
14.41152 503.000
14.57376 1047.000
14.73600 1639.000
14.89824 1364.000
15.06048 551.000
15.22272 451.000
15.38496 368.000
15.54720 457.000
15.70944 495.000
15.87168 490.000
16.03392 688.000
16.19616 1010.000
16.35841 3129.000
16.52065 1704.000
16.68289 2106.000
16.84513 2564.000
17.00737 2735.000
17.16961 3781.000
17.33185 1147.000
17.49409 729.000
17.65633 917.000
17.81857 1192.000
17.98081 3431.000
18.14305 6118.000
18.30530 1648.000
18.46754 1350.000
18.62978 2773.000
18.79202 2474.000
18.95426 1441.000
19.11650 1318.000
19.27874 1141.000
19.44098 2845.000
19.60322 2857.000
19.76546 2140.000
19.92770 4147.000
20.08995 2381.000
20.25219 3097.000
20.41443 3032.000
20.57667 1231.000
20.73891 901.000
20.90115 953.000
21.06339 1356.000
21.22563 2679.000
21.38787 7064.000
21.55011 9957.000
21.71235 5981.000
21.87459 1576.000
22.03684 963.000
22.19908 935.000
22.36132 1104.000
22.52356 1500.000
22.68580 1106.000
22.84804 1454.000
23.01028 1510.000
23.17252 1029.000
23.33476 1532.000
23.49700 3087.000
23.65924 2141.000
23.82148 1406.000
23.98373 961.000
24.14597 931.000
24.30821 1625.000
24.47045 1841.000
24.63269 1035.000
24.79493 1187.000
24.95717 943.000
25.11941 1456.000
25.28165 1694.000
25.44389 1391.000
25.60613 943.000
25.76837 809.000
25.93062 1273.000
26.09286 1750.000
26.25510 1139.000
26.41734 1247.000
26.57958 1592.000
26.74182 1273.000
26.90406 1658.000
27.06630 1603.000
27.22854 1251.000
27.39078 1257.000
27.55302 1086.000
27.71526 642.000
27.87751 574.000
28.03975 586.000
28.20199 712.000
28.36423 1009.000
28.52647 1196.000
28.68871 963.000
28.85095 832.000
29.01319 1034.000
29.17543 995.000
29.33767 974.000
29.49991 895.000
29.66216 953.000
29.82440 1071.000
29.98664 1025.000
30.14888 854.000
30.31112 749.000
30.47336 835.000
30.63560 551.000
30.79784 537.000
30.96008 632.000
31.12232 756.000
31.28456 655.000
31.44680 561.000
31.60905 607.000
31.77129 693.000
31.93353 698.000
32.09577 638.000
32.25801 572.000
32.42025 543.000
32.58249 474.000
32.74473 564.000
32.90697 633.000
33.06921 700.000
33.23145 639.000
33.39369 661.000
33.55594 567.000
33.71818 541.000
33.88042 588.000
34.04266 653.000
34.20490 705.000
34.36714 780.000
34.52938 1074.000
34.69162 989.000
34.85386 902.000
35.01610 875.000
35.17834 751.000
35.34058 590.000
35.50283 656.000
35.66507 583.000
35.82731 517.000
35.98955 507.000
36.15179 601.000
36.31403 568.000
36.47627 663.000
36.63851 832.000
36.80075 851.000
36.96299 714.000
37.12523 666.000
37.28748 614.000
37.44972 612.000
37.61196 593.000
37.77420 638.000
37.93644 721.000
38.09868 700.000
38.26092 542.000
38.42316 599.000
38.58540 540.000
38.74764 524.000
38.90988 494.000
39.07212 528.000
39.23437 570.000
39.39661 582.000
39.55885 664.000
39.72109 620.000
39.88333 582.000
40.04557 661.000
40.20781 742.000
40.37005 775.000
40.53229 667.000
40.69453 618.000
40.85677 543.000
41.01901 543.000
41.18126 610.000
41.34350 620.000
41.50574 719.000
41.66798 732.000
41.83022 733.000
41.99246 549.000
42.15470 502.000
42.31694 473.000
42.47918 495.000
42.64142 433.000
42.80366 472.000
42.96590 489.000
43.12815 566.000
43.29039 674.000
43.45263 604.000
43.61487 692.000
43.77711 671.000
43.93935 694.000
44.10159 708.000
44.26383 577.000
44.42607 475.000
44.58831 541.000
44.75055 562.000
44.91280 563.000
45.07504 608.000
45.23728 534.000
45.39952 507.000
45.56176 563.000
45.72400 549.000
45.88624 581.000
46.04848 487.000
46.21072 513.000
46.37296 531.000
46.53520 568.000
46.69744 550.000
46.85969 534.000
47.02193 522.000
47.18417 545.000
47.34641 621.000
47.50865 584.000
47.67089 547.000
47.83313 558.000
47.99537 507.000
48.15761 453.000
48.31985 459.000
48.48209 440.000
48.64433 419.000
48.80658 431.000
48.96882 433.000
49.13106 473.000
49.29330 443.000
49.45554 455.000
49.61778 453.000
49.78002 478.000
49.94226 471.000
50.10450 440.000
50.26674 519.000
50.42898 558.000
50.59122 527.000
50.75347 477.000
50.91571 439.000
50.99683 451.000