File: Task01/nick/files/ESI_material_XRD/kinetics/crystal_size_analysis/10ul IPA/2031_RVR_10ul_IPA_5m.xy
5.00155 869.000
5.16379 816.000
5.32603 728.000
5.48827 658.000
5.65051 646.000
5.81275 604.000
5.97499 554.000
6.13723 527.000
6.29947 573.000
6.46171 649.000
6.62395 1252.000
6.78620 5183.000
6.94844 2536.000
7.11068 649.000
7.27292 520.000
7.43516 462.000
7.59740 502.000
7.75964 507.000
7.92188 488.000
8.08412 684.000
8.24636 1947.000
8.40860 6359.000
8.57084 1286.000
8.73309 717.000
8.89533 504.000
9.05757 504.000
9.21981 438.000
9.38205 472.000
9.54429 502.000
9.70653 477.000
9.86877 573.000
10.03101 432.000
10.19325 447.000
10.35549 483.000
10.51773 985.000
10.67998 741.000
10.84222 499.000
11.00446 480.000
11.16670 420.000
11.32894 376.000
11.49118 403.000
11.65342 353.000
11.81566 400.000
11.97790 372.000
12.14014 369.000
12.30238 335.000
12.46463 389.000
12.62687 395.000
12.78911 409.000
12.95135 472.000
13.11359 579.000
13.27583 975.000
13.43807 1160.000
13.60031 1709.000
13.76255 813.000
13.92479 503.000
14.08703 406.000
14.24927 474.000
14.41152 556.000
14.57376 981.000
14.73600 2290.000
14.89824 1433.000
15.06048 877.000
15.22272 514.000
15.38496 483.000
15.54720 508.000
15.70944 503.000
15.87168 536.000
16.03392 725.000
16.19616 994.000
16.35841 3109.000
16.52065 2275.000
16.68289 2371.000
16.84513 3154.000
17.00737 2654.000
17.16961 4776.000
17.33185 1456.000
17.49409 857.000
17.65633 927.000
17.81857 1378.000
17.98081 3076.000
18.14305 7118.000
18.30530 2295.000
18.46754 1527.000
18.62978 2619.000
18.79202 3235.000
18.95426 1680.000
19.11650 1708.000
19.27874 1261.000
19.44098 2697.000
19.60322 3847.000
19.76546 2221.000
19.92770 4392.000
20.08995 2828.000
20.25219 3472.000
20.41443 4245.000
20.57667 1498.000
20.73891 1078.000
20.90115 1056.000
21.06339 1442.000
21.22563 2686.000
21.38787 6976.000
21.55011 10727.000
21.71235 7915.000
21.87459 2299.000
22.03684 1208.000
22.19908 1008.000
22.36132 1136.000
22.52356 1638.000
22.68580 1208.000
22.84804 1403.000
23.01028 1637.000
23.17252 1106.000
23.33476 1472.000
23.49700 2992.000
23.65924 2805.000
23.82148 1700.000
23.98373 1148.000
24.14597 1023.000
24.30821 1558.000
24.47045 2234.000
24.63269 1108.000
24.79493 1363.000
24.95717 998.000
25.11941 1430.000
25.28165 1921.000
25.44389 1572.000
25.60613 1171.000
25.76837 918.000
25.93062 1264.000
26.09286 1871.000
26.25510 1421.000
26.41734 1312.000
26.57958 1619.000
26.74182 1485.000
26.90406 1660.000
27.06630 1764.000
27.22854 1292.000
27.39078 1243.000
27.55302 1358.000
27.71526 755.000
27.87751 605.000
28.03975 590.000
28.20199 689.000
28.36423 991.000
28.52647 1268.000
28.68871 1137.000
28.85095 831.000
29.01319 1059.000
29.17543 1147.000
29.33767 1026.000
29.49991 978.000
29.66216 1049.000
29.82440 1144.000
29.98664 1076.000
30.14888 921.000
30.31112 793.000
30.47336 922.000
30.63560 643.000
30.79784 604.000
30.96008 638.000
31.12232 792.000
31.28456 710.000
31.44680 586.000
31.60905 684.000
31.77129 694.000
31.93353 749.000
32.09577 762.000
32.25801 701.000
32.42025 601.000
32.58249 563.000
32.74473 614.000
32.90697 668.000
33.06921 688.000
33.23145 714.000
33.39369 819.000
33.55594 620.000
33.71818 557.000
33.88042 597.000
34.04266 662.000
34.20490 705.000
34.36714 805.000
34.52938 1147.000
34.69162 1190.000
34.85386 861.000
35.01610 911.000
35.17834 764.000
35.34058 667.000
35.50283 646.000
35.66507 596.000
35.82731 574.000
35.98955 515.000
36.15179 579.000
36.31403 636.000
36.47627 722.000
36.63851 848.000
36.80075 861.000
36.96299 813.000
37.12523 717.000
37.28748 655.000
37.44972 611.000
37.61196 648.000
37.77420 649.000
37.93644 710.000
38.09868 749.000
38.26092 636.000
38.42316 586.000
38.58540 563.000
38.74764 532.000
38.90988 521.000
39.07212 520.000
39.23437 542.000
39.39661 632.000
39.55885 683.000
39.72109 753.000
39.88333 649.000
40.04557 655.000
40.20781 733.000
40.37005 752.000
40.53229 732.000
40.69453 614.000
40.85677 536.000
41.01901 564.000
41.18126 564.000
41.34350 628.000
41.50574 769.000
41.66798 733.000
41.83022 788.000
41.99246 620.000
42.15470 532.000
42.31694 533.000
42.47918 501.000
42.64142 478.000
42.80366 474.000
42.96590 514.000
43.12815 582.000
43.29039 657.000
43.45263 661.000
43.61487 661.000
43.77711 658.000
43.93935 699.000
44.10159 652.000
44.26383 624.000
44.42607 574.000
44.58831 504.000
44.75055 530.000
44.91280 537.000
45.07504 555.000
45.23728 543.000
45.39952 544.000
45.56176 575.000
45.72400 537.000
45.88624 550.000
46.04848 508.000
46.21072 540.000
46.37296 592.000
46.53520 569.000
46.69744 564.000
46.85969 501.000
47.02193 512.000
47.18417 527.000
47.34641 593.000
47.50865 557.000
47.67089 579.000
47.83313 521.000
47.99537 510.000
48.15761 490.000
48.31985 509.000
48.48209 467.000
48.64433 462.000
48.80658 413.000
48.96882 454.000
49.13106 407.000
49.29330 485.000
49.45554 474.000
49.61778 484.000
49.78002 459.000
49.94226 467.000
50.10450 476.000
50.26674 527.000
50.42898 586.000
50.59122 525.000
50.75347 478.000
50.91571 488.000
50.99683 470.000