File: Task01/nick/files/ESI_material_XRD/kinetics/crystal_size_analysis/10ul IPA/2033_RVR_10ul_IPA_1m.xy
5.00155 856.000
5.16379 788.000
5.32603 742.000
5.48827 659.000
5.65051 666.000
5.81275 645.000
5.97499 582.000
6.13723 561.000
6.29947 551.000
6.46171 698.000
6.62395 1605.000
6.78620 6334.000
6.94844 1118.000
7.11068 659.000
7.27292 460.000
7.43516 450.000
7.59740 446.000
7.75964 486.000
7.92188 435.000
8.08412 731.000
8.24636 2472.000
8.40860 5695.000
8.57084 924.000
8.73309 585.000
8.89533 441.000
9.05757 445.000
9.21981 433.000
9.38205 443.000
9.54429 464.000
9.70653 407.000
9.86877 626.000
10.03101 431.000
10.19325 403.000
10.35549 448.000
10.51773 1270.000
10.67998 527.000
10.84222 448.000
11.00446 469.000
11.16670 350.000
11.32894 397.000
11.49118 355.000
11.65342 354.000
11.81566 350.000
11.97790 342.000
12.14014 369.000
12.30238 362.000
12.46463 345.000
12.62687 367.000
12.78911 369.000
12.95135 413.000
13.11359 674.000
13.27583 966.000
13.43807 1113.000
13.60031 1469.000
13.76255 609.000
13.92479 388.000
14.08703 454.000
14.24927 459.000
14.41152 510.000
14.57376 1227.000
14.73600 1545.000
14.89824 1456.000
15.06048 581.000
15.22272 460.000
15.38496 430.000
15.54720 460.000
15.70944 441.000
15.87168 517.000
16.03392 709.000
16.19616 977.000
16.35841 3579.000
16.52065 1489.000
16.68289 2180.000
16.84513 2649.000
17.00737 2822.000
17.16961 3497.000
17.33185 1131.000
17.49409 735.000
17.65633 872.000
17.81857 1183.000
17.98081 3680.000
18.14305 6170.000
18.30530 1560.000
18.46754 1251.000
18.62978 3082.000
18.79202 2129.000
18.95426 1420.000
19.11650 1398.000
19.27874 1145.000
19.44098 3009.000
19.60322 2996.000
19.76546 2098.000
19.92770 4483.000
20.08995 2287.000
20.25219 3306.000
20.41443 3161.000
20.57667 1355.000
20.73891 878.000
20.90115 946.000
21.06339 1351.000
21.22563 2581.000
21.38787 7738.000
21.55011 10471.000
21.71235 6092.000
21.87459 1376.000
22.03684 969.000
22.19908 927.000
22.36132 1142.000
22.52356 1549.000
22.68580 1035.000
22.84804 1382.000
23.01028 1568.000
23.17252 962.000
23.33476 1565.000
23.49700 3592.000
23.65924 2010.000
23.82148 1404.000
23.98373 957.000
24.14597 883.000
24.30821 1600.000
24.47045 2095.000
24.63269 1050.000
24.79493 1258.000
24.95717 898.000
25.11941 1590.000
25.28165 1828.000
25.44389 1406.000
25.60613 919.000
25.76837 838.000
25.93062 1221.000
26.09286 1911.000
26.25510 1176.000
26.41734 1244.000
26.57958 1717.000
26.74182 1302.000
26.90406 1565.000
27.06630 1651.000
27.22854 1189.000
27.39078 1305.000
27.55302 1171.000
27.71526 631.000
27.87751 582.000
28.03975 563.000
28.20199 681.000
28.36423 937.000
28.52647 1289.000
28.68871 955.000
28.85095 853.000
29.01319 1104.000
29.17543 1037.000
29.33767 983.000
29.49991 894.000
29.66216 953.000
29.82440 1089.000
29.98664 1060.000
30.14888 862.000
30.31112 704.000
30.47336 907.000
30.63560 561.000
30.79784 530.000
30.96008 601.000
31.12232 785.000
31.28456 645.000
31.44680 572.000
31.60905 655.000
31.77129 677.000
31.93353 764.000
32.09577 696.000
32.25801 590.000
32.42025 544.000
32.58249 485.000
32.74473 592.000
32.90697 598.000
33.06921 687.000
33.23145 657.000
33.39369 750.000
33.55594 582.000
33.71818 562.000
33.88042 597.000
34.04266 682.000
34.20490 618.000
34.36714 714.000
34.52938 1131.000
34.69162 1042.000
34.85386 879.000
35.01610 902.000
35.17834 674.000
35.34058 650.000
35.50283 598.000
35.66507 640.000
35.82731 503.000
35.98955 460.000
36.15179 597.000
36.31403 653.000
36.47627 650.000
36.63851 814.000
36.80075 875.000
36.96299 774.000
37.12523 749.000
37.28748 636.000
37.44972 568.000
37.61196 578.000
37.77420 669.000
37.93644 709.000
38.09868 753.000
38.26092 576.000
38.42316 627.000
38.58540 548.000
38.74764 501.000
38.90988 489.000
39.07212 530.000
39.23437 531.000
39.39661 641.000
39.55885 657.000
39.72109 714.000
39.88333 632.000
40.04557 684.000
40.20781 782.000
40.37005 759.000
40.53229 679.000
40.69453 530.000
40.85677 527.000
41.01901 561.000
41.18126 569.000
41.34350 684.000
41.50574 704.000
41.66798 730.000
41.83022 718.000
41.99246 546.000
42.15470 503.000
42.31694 453.000
42.47918 490.000
42.64142 427.000
42.80366 461.000
42.96590 500.000
43.12815 576.000
43.29039 663.000
43.45263 648.000
43.61487 679.000
43.77711 644.000
43.93935 710.000
44.10159 689.000
44.26383 610.000
44.42607 559.000
44.58831 505.000
44.75055 538.000
44.91280 547.000
45.07504 531.000
45.23728 508.000
45.39952 514.000
45.56176 524.000
45.72400 560.000
45.88624 535.000
46.04848 502.000
46.21072 516.000
46.37296 571.000
46.53520 549.000
46.69744 582.000
46.85969 525.000
47.02193 506.000
47.18417 536.000
47.34641 627.000
47.50865 593.000
47.67089 531.000
47.83313 508.000
47.99537 487.000
48.15761 462.000
48.31985 481.000
48.48209 490.000
48.64433 482.000
48.80658 450.000
48.96882 439.000
49.13106 426.000
49.29330 475.000
49.45554 440.000
49.61778 437.000
49.78002 457.000
49.94226 474.000
50.10450 460.000
50.26674 545.000
50.42898 555.000
50.59122 483.000
50.75347 472.000
50.91571 444.000
50.99683 456.000