File: Task01/nick/files/ESI_material_XRD/kinetics/crystal_size_analysis/10ul IPA/RVR_10ul_IPA_30m.xy
5.00155 649.000
5.16379 610.000
5.32603 599.000
5.48827 559.000
5.65051 519.000
5.81275 508.000
5.97499 516.000
6.13723 550.000
6.29947 526.000
6.46171 596.000
6.62395 1079.000
6.78620 4792.000
6.94844 4718.000
7.11068 701.000
7.27292 526.000
7.43516 471.000
7.59740 479.000
7.75964 468.000
7.92188 493.000
8.08412 603.000
8.24636 1735.000
8.40860 6818.000
8.57084 1539.000
8.73309 710.000
8.89533 562.000
9.05757 520.000
9.21981 459.000
9.38205 452.000
9.54429 522.000
9.70653 466.000
9.86877 533.000
10.03101 491.000
10.19325 437.000
10.35549 463.000
10.51773 819.000
10.67998 1070.000
10.84222 528.000
11.00446 491.000
11.16670 380.000
11.32894 405.000
11.49118 412.000
11.65342 394.000
11.81566 388.000
11.97790 399.000
12.14014 418.000
12.30238 409.000
12.46463 419.000
12.62687 419.000
12.78911 442.000
12.95135 424.000
13.11359 571.000
13.27583 1121.000
13.43807 1302.000
13.60031 2038.000
13.76255 1021.000
13.92479 542.000
14.08703 504.000
14.24927 495.000
14.41152 543.000
14.57376 943.000
14.73600 2955.000
14.89824 1400.000
15.06048 1211.000
15.22272 556.000
15.38496 532.000
15.54720 548.000
15.70944 520.000
15.87168 623.000
16.03392 706.000
16.19616 937.000
16.35841 3055.000
16.52065 3193.000
16.68289 2604.000
16.84513 3906.000
17.00737 2366.000
17.16961 6364.000
17.33185 1953.000
17.49409 931.000
17.65633 971.000
17.81857 1281.000
17.98081 2484.000
18.14305 9157.000
18.30530 3524.000
18.46754 1571.000
18.62978 2497.000
18.79202 4566.000
18.95426 1891.000
19.11650 2183.000
19.27874 1263.000
19.44098 2371.000
19.60322 5323.000
19.76546 2330.000
19.92770 4581.000
20.08995 3711.000
20.25219 3774.000
20.41443 5829.000
20.57667 1711.000
20.73891 1256.000
20.90115 1127.000
21.06339 1396.000
21.22563 2537.000
21.38787 6536.000
21.55011 13019.000
21.71235 11795.000
21.87459 3273.000
22.03684 1432.000
22.19908 1138.000
22.36132 1258.000
22.52356 1893.000
22.68580 1438.000
22.84804 1561.000
23.01028 1996.000
23.17252 1396.000
23.33476 1520.000
23.49700 3306.000
23.65924 4134.000
23.82148 2121.000
23.98373 1425.000
24.14597 1087.000
24.30821 1609.000
24.47045 3186.000
24.63269 1364.000
24.79493 1643.000
24.95717 1097.000
25.11941 1458.000
25.28165 2371.000
25.44389 1745.000
25.60613 1464.000
25.76837 984.000
25.93062 1336.000
26.09286 2228.000
26.25510 1736.000
26.41734 1455.000
26.57958 1972.000
26.74182 1822.000
26.90406 1751.000
27.06630 2333.000
27.22854 1747.000
27.39078 1558.000
27.55302 1679.000
27.71526 1010.000
27.87751 760.000
28.03975 697.000
28.20199 777.000
28.36423 1089.000
28.52647 1521.000
28.68871 1432.000
28.85095 1050.000
29.01319 1222.000
29.17543 1418.000
29.33767 1170.000
29.49991 1168.000
29.66216 1144.000
29.82440 1357.000
29.98664 1431.000
30.14888 1294.000
30.31112 899.000
30.47336 1149.000
30.63560 879.000
30.79784 683.000
30.96008 734.000
31.12232 940.000
31.28456 935.000
31.44680 714.000
31.60905 695.000
31.77129 812.000
31.93353 931.000
32.09577 868.000
32.25801 763.000
32.42025 708.000
32.58249 646.000
32.74473 703.000
32.90697 704.000
33.06921 901.000
33.23145 832.000
33.39369 955.000
33.55594 804.000
33.71818 655.000
33.88042 639.000
34.04266 840.000
34.20490 851.000
34.36714 938.000
34.52938 1271.000
34.69162 1500.000
34.85386 1094.000
35.01610 1158.000
35.17834 969.000
35.34058 792.000
35.50283 746.000
35.66507 739.000
35.82731 680.000
35.98955 601.000
36.15179 633.000
36.31403 734.000
36.47627 831.000
36.63851 971.000
36.80075 1156.000
36.96299 1052.000
37.12523 884.000
37.28748 822.000
37.44972 707.000
37.61196 707.000
37.77420 789.000
37.93644 846.000
38.09868 924.000
38.26092 704.000
38.42316 758.000
38.58540 748.000
38.74764 641.000
38.90988 680.000
39.07212 655.000
39.23437 672.000
39.39661 751.000
39.55885 798.000
39.72109 907.000
39.88333 771.000
40.04557 782.000
40.20781 972.000
40.37005 979.000
40.53229 946.000
40.69453 772.000
40.85677 684.000
41.01901 672.000
41.18126 635.000
41.34350 767.000
41.50574 890.000
41.66798 827.000
41.83022 986.000
41.99246 817.000
42.15470 631.000
42.31694 612.000
42.47918 616.000
42.64142 556.000
42.80366 606.000
42.96590 619.000
43.12815 619.000
43.29039 779.000
43.45263 824.000
43.61487 797.000
43.77711 827.000
43.93935 925.000
44.10159 849.000
44.26383 760.000
44.42607 661.000
44.58831 655.000
44.75055 678.000
44.91280 696.000
45.07504 720.000
45.23728 587.000
45.39952 660.000
45.56176 640.000
45.72400 661.000
45.88624 665.000
46.04848 605.000
46.21072 659.000
46.37296 646.000
46.53520 702.000
46.69744 686.000
46.85969 647.000
47.02193 631.000
47.18417 637.000
47.34641 680.000
47.50865 734.000
47.67089 735.000
47.83313 645.000
47.99537 663.000
48.15761 640.000
48.31985 529.000
48.48209 543.000
48.64433 593.000
48.80658 547.000
48.96882 537.000
49.13106 541.000
49.29330 511.000
49.45554 563.000
49.61778 541.000
49.78002 574.000
49.94226 578.000
50.00310 550.000