File: Task01/nick/files/ESI_material_XRD/kinetics/crystal_size_analysis/20ul IPA/2030_RVR_20ul_IPA_30m.xy
5.00155 865.000
5.16379 752.000
5.32603 709.000
5.48827 678.000
5.65051 632.000
5.81275 627.000
5.97499 561.000
6.13723 578.000
6.29947 578.000
6.46171 686.000
6.62395 918.000
6.78620 2976.000
6.94844 1529.000
7.11068 551.000
7.27292 424.000
7.43516 434.000
7.59740 410.000
7.75964 397.000
7.92188 456.000
8.08412 576.000
8.24636 1304.000
8.40860 3644.000
8.57084 1607.000
8.73309 1357.000
8.89533 543.000
9.05757 458.000
9.21981 509.000
9.38205 765.000
9.54429 1128.000
9.70653 709.000
9.86877 1417.000
10.03101 662.000
10.19325 483.000
10.35549 483.000
10.51773 730.000
10.67998 648.000
10.84222 614.000
11.00446 1009.000
11.16670 423.000
11.32894 367.000
11.49118 399.000
11.65342 339.000
11.81566 387.000
11.97790 359.000
12.14014 378.000
12.30238 379.000
12.46463 354.000
12.62687 359.000
12.78911 359.000
12.95135 441.000
13.11359 593.000
13.27583 913.000
13.43807 858.000
13.60031 1360.000
13.76255 1329.000
13.92479 706.000
14.08703 423.000
14.24927 459.000
14.41152 484.000
14.57376 768.000
14.73600 1258.000
14.89824 1047.000
15.06048 629.000
15.22272 471.000
15.38496 454.000
15.54720 570.000
15.70944 677.000
15.87168 705.000
16.03392 1274.000
16.19616 1295.000
16.35841 2173.000
16.52065 1851.000
16.68289 2352.000
16.84513 2130.000
17.00737 1790.000
17.16961 2929.000
17.33185 2014.000
17.49409 1267.000
17.65633 1552.000
17.81857 3312.000
17.98081 2387.000
18.14305 4352.000
18.30530 3067.000
18.46754 2560.000
18.62978 1996.000
18.79202 2319.000
18.95426 2071.000
19.11650 1556.000
19.27874 1269.000
19.44098 2461.000
19.60322 3162.000
19.76546 2361.000
19.92770 3653.000
20.08995 3180.000
20.25219 2761.000
20.41443 3100.000
20.57667 2080.000
20.73891 1659.000
20.90115 1118.000
21.06339 1212.000
21.22563 2005.000
21.38787 4648.000
21.55011 7327.000
21.71235 5943.000
21.87459 1847.000
22.03684 1220.000
22.19908 1481.000
22.36132 1147.000
22.52356 1335.000
22.68580 1267.000
22.84804 1350.000
23.01028 1285.000
23.17252 965.000
23.33476 1285.000
23.49700 2335.000
23.65924 1942.000
23.82148 1366.000
23.98373 1187.000
24.14597 1159.000
24.30821 1372.000
24.47045 1796.000
24.63269 1025.000
24.79493 1284.000
24.95717 1001.000
25.11941 1224.000
25.28165 1803.000
25.44389 1660.000
25.60613 1082.000
25.76837 929.000
25.93062 1215.000
26.09286 1659.000
26.25510 1382.000
26.41734 1392.000
26.57958 1306.000
26.74182 1190.000
26.90406 1365.000
27.06630 1268.000
27.22854 1025.000
27.39078 1053.000
27.55302 1103.000
27.71526 651.000
27.87751 552.000
28.03975 581.000
28.20199 672.000
28.36423 907.000
28.52647 1230.000
28.68871 1233.000
28.85095 931.000
29.01319 906.000
29.17543 861.000
29.33767 863.000
29.49991 820.000
29.66216 873.000
29.82440 1234.000
29.98664 1125.000
30.14888 1005.000
30.31112 873.000
30.47336 864.000
30.63560 559.000
30.79784 594.000
30.96008 657.000
31.12232 780.000
31.28456 780.000
31.44680 755.000
31.60905 821.000
31.77129 870.000
31.93353 801.000
32.09577 774.000
32.25801 634.000
32.42025 623.000
32.58249 569.000
32.74473 602.000
32.90697 581.000
33.06921 711.000
33.23145 705.000
33.39369 722.000
33.55594 632.000
33.71818 595.000
33.88042 571.000
34.04266 606.000
34.20490 635.000
34.36714 687.000
34.52938 785.000
34.69162 869.000
34.85386 773.000
35.01610 826.000
35.17834 752.000
35.34058 582.000
35.50283 622.000
35.66507 629.000
35.82731 556.000
35.98955 565.000
36.15179 718.000
36.31403 713.000
36.47627 682.000
36.63851 765.000
36.80075 767.000
36.96299 637.000
37.12523 639.000
37.28748 653.000
37.44972 627.000
37.61196 540.000
37.77420 548.000
37.93644 675.000
38.09868 633.000
38.26092 601.000
38.42316 594.000
38.58540 580.000
38.74764 518.000
38.90988 549.000
39.07212 562.000
39.23437 560.000
39.39661 545.000
39.55885 603.000
39.72109 639.000
39.88333 559.000
40.04557 617.000
40.20781 682.000
40.37005 711.000
40.53229 765.000
40.69453 640.000
40.85677 502.000
41.01901 538.000
41.18126 560.000
41.34350 576.000
41.50574 600.000
41.66798 643.000
41.83022 645.000
41.99246 560.000
42.15470 459.000
42.31694 462.000
42.47918 485.000
42.64142 472.000
42.80366 470.000
42.96590 500.000
43.12815 532.000
43.29039 575.000
43.45263 560.000
43.61487 599.000
43.77711 618.000
43.93935 609.000
44.10159 644.000
44.26383 573.000
44.42607 577.000
44.58831 601.000
44.75055 533.000
44.91280 594.000
45.07504 538.000
45.23728 513.000
45.39952 501.000
45.56176 544.000
45.72400 560.000
45.88624 531.000
46.04848 530.000
46.21072 509.000
46.37296 516.000
46.53520 571.000
46.69744 586.000
46.85969 515.000
47.02193 500.000
47.18417 517.000
47.34641 580.000
47.50865 530.000
47.67089 541.000
47.83313 521.000
47.99537 507.000
48.15761 473.000
48.31985 475.000
48.48209 460.000
48.64433 442.000
48.80658 468.000
48.96882 475.000
49.13106 464.000
49.29330 456.000
49.45554 406.000
49.61778 464.000
49.78002 469.000
49.94226 437.000
50.10450 466.000
50.26674 497.000
50.42898 505.000
50.59122 493.000
50.75347 500.000
50.91571 431.000
50.99683 462.000