File: Task01/nick/files/ESI_material_XRD/kinetics/crystal_size_analysis/20ul IPA/2032_RVR_20ul_IPA_5m.xy
5.00155 969.000
5.16379 793.000
5.32603 783.000
5.48827 679.000
5.65051 592.000
5.81275 578.000
5.97499 586.000
6.13723 513.000
6.29947 515.000
6.46171 672.000
6.62395 1108.000
6.78620 5230.000
6.94844 2318.000
7.11068 636.000
7.27292 505.000
7.43516 466.000
7.59740 449.000
7.75964 457.000
7.92188 443.000
8.08412 652.000
8.24636 1721.000
8.40860 6914.000
8.57084 1479.000
8.73309 1083.000
8.89533 552.000
9.05757 440.000
9.21981 493.000
9.38205 619.000
9.54429 1054.000
9.70653 519.000
9.86877 1406.000
10.03101 523.000
10.19325 470.000
10.35549 445.000
10.51773 1011.000
10.67998 758.000
10.84222 621.000
11.00446 925.000
11.16670 439.000
11.32894 381.000
11.49118 352.000
11.65342 372.000
11.81566 378.000
11.97790 361.000
12.14014 349.000
12.30238 387.000
12.46463 413.000
12.62687 378.000
12.78911 391.000
12.95135 465.000
13.11359 625.000
13.27583 1124.000
13.43807 1139.000
13.60031 1857.000
13.76255 1308.000
13.92479 612.000
14.08703 458.000
14.24927 487.000
14.41152 521.000
14.57376 993.000
14.73600 2161.000
14.89824 1411.000
15.06048 717.000
15.22272 488.000
15.38496 451.000
15.54720 537.000
15.70944 661.000
15.87168 623.000
16.03392 1156.000
16.19616 1131.000
16.35841 3452.000
16.52065 2086.000
16.68289 2966.000
16.84513 3196.000
17.00737 2295.000
17.16961 4913.000
17.33185 2152.000
17.49409 1020.000
17.65633 1209.000
17.81857 2907.000
17.98081 3083.000
18.14305 7971.000
18.30530 2815.000
18.46754 2292.000
18.62978 2729.000
18.79202 3288.000
18.95426 2084.000
19.11650 1782.000
19.27874 1227.000
19.44098 3106.000
19.60322 3964.000
19.76546 2521.000
19.92770 4930.000
20.08995 3406.000
20.25219 3451.000
20.41443 4392.000
20.57667 1890.000
20.73891 1574.000
20.90115 1165.000
21.06339 1258.000
21.22563 2446.000
21.38787 6823.000
21.55011 11454.000
21.71235 8778.000
21.87459 2127.000
22.03684 1216.000
22.19908 1445.000
22.36132 1252.000
22.52356 1709.000
22.68580 1359.000
22.84804 1602.000
23.01028 1649.000
23.17252 1036.000
23.33476 1529.000
23.49700 3396.000
23.65924 2793.000
23.82148 1697.000
23.98373 1220.000
24.14597 1253.000
24.30821 1692.000
24.47045 2568.000
24.63269 1188.000
24.79493 1589.000
24.95717 1044.000
25.11941 1488.000
25.28165 2310.000
25.44389 1731.000
25.60613 1221.000
25.76837 1011.000
25.93062 1314.000
26.09286 2230.000
26.25510 1515.000
26.41734 1381.000
26.57958 1850.000
26.74182 1509.000
26.90406 1706.000
27.06630 1766.000
27.22854 1383.000
27.39078 1226.000
27.55302 1394.000
27.71526 772.000
27.87751 679.000
28.03975 637.000
28.20199 699.000
28.36423 1025.000
28.52647 1472.000
28.68871 1432.000
28.85095 949.000
29.01319 1047.000
29.17543 1140.000
29.33767 1071.000
29.49991 975.000
29.66216 1080.000
29.82440 1408.000
29.98664 1282.000
30.14888 1171.000
30.31112 948.000
30.47336 1010.000
30.63560 666.000
30.79784 599.000
30.96008 679.000
31.12232 909.000
31.28456 907.000
31.44680 697.000
31.60905 819.000
31.77129 860.000
31.93353 857.000
32.09577 806.000
32.25801 706.000
32.42025 667.000
32.58249 581.000
32.74473 598.000
32.90697 695.000
33.06921 785.000
33.23145 810.000
33.39369 841.000
33.55594 654.000
33.71818 643.000
33.88042 626.000
34.04266 719.000
34.20490 756.000
34.36714 808.000
34.52938 1109.000
34.69162 1228.000
34.85386 966.000
35.01610 1105.000
35.17834 802.000
35.34058 726.000
35.50283 711.000
35.66507 711.000
35.82731 551.000
35.98955 599.000
36.15179 717.000
36.31403 810.000
36.47627 791.000
36.63851 836.000
36.80075 895.000
36.96299 824.000
37.12523 784.000
37.28748 723.000
37.44972 625.000
37.61196 653.000
37.77420 713.000
37.93644 752.000
38.09868 826.000
38.26092 680.000
38.42316 683.000
38.58540 656.000
38.74764 610.000
38.90988 602.000
39.07212 634.000
39.23437 598.000
39.39661 652.000
39.55885 707.000
39.72109 772.000
39.88333 719.000
40.04557 761.000
40.20781 868.000
40.37005 882.000
40.53229 906.000
40.69453 647.000
40.85677 608.000
41.01901 584.000
41.18126 651.000
41.34350 753.000
41.50574 746.000
41.66798 790.000
41.83022 795.000
41.99246 612.000
42.15470 530.000
42.31694 511.000
42.47918 572.000
42.64142 537.000
42.80366 554.000
42.96590 581.000
43.12815 594.000
43.29039 718.000
43.45263 706.000
43.61487 724.000
43.77711 694.000
43.93935 715.000
44.10159 747.000
44.26383 679.000
44.42607 586.000
44.58831 636.000
44.75055 654.000
44.91280 614.000
45.07504 636.000
45.23728 584.000
45.39952 565.000
45.56176 605.000
45.72400 646.000
45.88624 575.000
46.04848 590.000
46.21072 615.000
46.37296 624.000
46.53520 636.000
46.69744 646.000
46.85969 601.000
47.02193 579.000
47.18417 607.000
47.34641 669.000
47.50865 638.000
47.67089 612.000
47.83313 585.000
47.99537 586.000
48.15761 543.000
48.31985 557.000
48.48209 494.000
48.64433 522.000
48.80658 501.000
48.96882 503.000
49.13106 534.000
49.29330 499.000
49.45554 532.000
49.61778 466.000
49.78002 478.000
49.94226 480.000
50.10450 512.000
50.26674 552.000
50.42898 641.000
50.59122 596.000
50.75347 515.000
50.91571 466.000
50.99683 507.000