File: Task01/nick/files/ESI_material_XRD/kinetics/crystal_size_analysis/20ul IPA/2034_RVR_20ul_IPA_1m.xy
5.00155 909.000
5.16379 789.000
5.32603 747.000
5.48827 666.000
5.65051 601.000
5.81275 537.000
5.97499 492.000
6.13723 498.000
6.29947 516.000
6.46171 568.000
6.62395 1159.000
6.78620 5069.000
6.94844 1525.000
7.11068 520.000
7.27292 423.000
7.43516 423.000
7.59740 410.000
7.75964 354.000
7.92188 427.000
8.08412 573.000
8.24636 1774.000
8.40860 5747.000
8.57084 1165.000
8.73309 647.000
8.89533 480.000
9.05757 360.000
9.21981 392.000
9.38205 497.000
9.54429 571.000
9.70653 458.000
9.86877 942.000
10.03101 420.000
10.19325 379.000
10.35549 389.000
10.51773 1030.000
10.67998 584.000
10.84222 473.000
11.00446 567.000
11.16670 341.000
11.32894 327.000
11.49118 340.000
11.65342 299.000
11.81566 333.000
11.97790 314.000
12.14014 288.000
12.30238 329.000
12.46463 326.000
12.62687 341.000
12.78911 370.000
12.95135 355.000
13.11359 558.000
13.27583 886.000
13.43807 954.000
13.60031 1461.000
13.76255 871.000
13.92479 368.000
14.08703 391.000
14.24927 418.000
14.41152 422.000
14.57376 1034.000
14.73600 1713.000
14.89824 1287.000
15.06048 583.000
15.22272 399.000
15.38496 387.000
15.54720 390.000
15.70944 449.000
15.87168 484.000
16.03392 925.000
16.19616 992.000
16.35841 3153.000
16.52065 1614.000
16.68289 2323.000
16.84513 2594.000
17.00737 2385.000
17.16961 3728.000
17.33185 1447.000
17.49409 750.000
17.65633 987.000
17.81857 1797.000
17.98081 3010.000
18.14305 6535.000
18.30530 1895.000
18.46754 1490.000
18.62978 2596.000
18.79202 2446.000
18.95426 1598.000
19.11650 1363.000
19.27874 1036.000
19.44098 2894.000
19.60322 2957.000
19.76546 2193.000
19.92770 4192.000
20.08995 2520.000
20.25219 3153.000
20.41443 3342.000
20.57667 1411.000
20.73891 1002.000
20.90115 958.000
21.06339 1177.000
21.22563 2309.000
21.38787 6788.000
21.55011 10208.000
21.71235 6742.000
21.87459 1406.000
22.03684 1002.000
22.19908 1035.000
22.36132 1017.000
22.52356 1597.000
22.68580 1089.000
22.84804 1352.000
23.01028 1396.000
23.17252 865.000
23.33476 1419.000
23.49700 3240.000
23.65924 2095.000
23.82148 1425.000
23.98373 921.000
24.14597 973.000
24.30821 1468.000
24.47045 2051.000
24.63269 1056.000
24.79493 1167.000
24.95717 870.000
25.11941 1466.000
25.28165 1847.000
25.44389 1548.000
25.60613 939.000
25.76837 844.000
25.93062 1257.000
26.09286 1901.000
26.25510 1155.000
26.41734 1275.000
26.57958 1602.000
26.74182 1225.000
26.90406 1638.000
27.06630 1601.000
27.22854 1136.000
27.39078 1119.000
27.55302 1220.000
27.71526 595.000
27.87751 532.000
28.03975 556.000
28.20199 596.000
28.36423 915.000
28.52647 1338.000
28.68871 1017.000
28.85095 813.000
29.01319 991.000
29.17543 960.000
29.33767 929.000
29.49991 839.000
29.66216 889.000
29.82440 1179.000
29.98664 1103.000
30.14888 874.000
30.31112 790.000
30.47336 858.000
30.63560 529.000
30.79784 536.000
30.96008 592.000
31.12232 811.000
31.28456 657.000
31.44680 567.000
31.60905 710.000
31.77129 729.000
31.93353 737.000
32.09577 703.000
32.25801 614.000
32.42025 596.000
32.58249 470.000
32.74473 580.000
32.90697 574.000
33.06921 673.000
33.23145 710.000
33.39369 813.000
33.55594 561.000
33.71818 534.000
33.88042 585.000
34.04266 630.000
34.20490 679.000
34.36714 684.000
34.52938 1121.000
34.69162 1006.000
34.85386 847.000
35.01610 916.000
35.17834 681.000
35.34058 605.000
35.50283 597.000
35.66507 576.000
35.82731 519.000
35.98955 491.000
36.15179 610.000
36.31403 638.000
36.47627 672.000
36.63851 774.000
36.80075 790.000
36.96299 663.000
37.12523 674.000
37.28748 661.000
37.44972 553.000
37.61196 553.000
37.77420 609.000
37.93644 699.000
38.09868 704.000
38.26092 508.000
38.42316 618.000
38.58540 604.000
38.74764 513.000
38.90988 522.000
39.07212 562.000
39.23437 529.000
39.39661 589.000
39.55885 659.000
39.72109 632.000
39.88333 561.000
40.04557 643.000
40.20781 763.000
40.37005 730.000
40.53229 665.000
40.69453 567.000
40.85677 505.000
41.01901 577.000
41.18126 577.000
41.34350 621.000
41.50574 628.000
41.66798 700.000
41.83022 722.000
41.99246 508.000
42.15470 477.000
42.31694 495.000
42.47918 502.000
42.64142 466.000
42.80366 448.000
42.96590 502.000
43.12815 517.000
43.29039 603.000
43.45263 601.000
43.61487 601.000
43.77711 616.000
43.93935 680.000
44.10159 662.000
44.26383 628.000
44.42607 508.000
44.58831 522.000
44.75055 536.000
44.91280 588.000
45.07504 570.000
45.23728 507.000
45.39952 485.000
45.56176 503.000
45.72400 504.000
45.88624 504.000
46.04848 478.000
46.21072 484.000
46.37296 503.000
46.53520 563.000
46.69744 510.000
46.85969 523.000
47.02193 487.000
47.18417 495.000
47.34641 575.000
47.50865 585.000
47.67089 533.000
47.83313 517.000
47.99537 504.000
48.15761 469.000
48.31985 469.000
48.48209 460.000
48.64433 471.000
48.80658 454.000
48.96882 396.000
49.13106 421.000
49.29330 504.000
49.45554 486.000
49.61778 437.000
49.78002 429.000
49.94226 470.000
50.10450 411.000
50.26674 507.000
50.42898 534.000
50.59122 461.000
50.75347 471.000
50.91571 467.000
50.99683 438.000