File: Task01/nick/files/ESI_material_XRD/kinetics/crystal_size_analysis/20ul IPA/2045_RVR_20ul_IPA_15m.xy
5.00155 904.000
5.16379 807.000
5.32603 770.000
5.48827 698.000
5.65051 684.000
5.81275 642.000
5.97499 615.000
6.13723 563.000
6.29947 637.000
6.46171 725.000
6.62395 1162.000
6.78620 4240.000
6.94844 1014.000
7.11068 545.000
7.27292 486.000
7.43516 510.000
7.59740 510.000
7.75964 502.000
7.92188 503.000
8.08412 660.000
8.24636 1743.000
8.40860 3973.000
8.57084 1987.000
8.73309 1105.000
8.89533 596.000
9.05757 564.000
9.21981 535.000
9.38205 852.000
9.54429 1029.000
9.70653 782.000
9.86877 1709.000
10.03101 617.000
10.19325 488.000
10.35549 538.000
10.51773 948.000
10.67998 570.000
10.84222 817.000
11.00446 861.000
11.16670 445.000
11.32894 380.000
11.49118 402.000
11.65342 391.000
11.81566 407.000
11.97790 407.000
12.14014 390.000
12.30238 460.000
12.46463 365.000
12.62687 403.000
12.78911 414.000
12.95135 489.000
13.11359 679.000
13.27583 922.000
13.43807 937.000
13.60031 1451.000
13.76255 1321.000
13.92479 633.000
14.08703 474.000
14.24927 466.000
14.41152 568.000
14.57376 952.000
14.73600 1221.000
14.89824 1298.000
15.06048 548.000
15.22272 506.000
15.38496 552.000
15.54720 647.000
15.70944 678.000
15.87168 753.000
16.03392 1648.000
16.19616 1249.000
16.35841 2637.000
16.52065 1727.000
16.68289 2401.000
16.84513 1986.000
17.00737 2040.000
17.16961 2795.000
17.33185 2368.000
17.49409 1187.000
17.65633 2209.000
17.81857 3009.000
17.98081 2929.000
18.14305 4484.000
18.30530 3444.000
18.46754 2227.000
18.62978 2343.000
18.79202 2346.000
18.95426 2030.000
19.11650 1369.000
19.27874 1307.000
19.44098 2937.000
19.60322 2673.000
19.76546 2753.000
19.92770 3938.000
20.08995 2912.000
20.25219 2868.000
20.41443 2719.000
20.57667 2525.000
20.73891 1422.000
20.90115 1158.000
21.06339 1412.000
21.22563 2316.000
21.38787 5582.000
21.55011 7577.000
21.71235 5219.000
21.87459 1560.000
22.03684 1397.000
22.19908 1494.000
22.36132 1190.000
22.52356 1494.000
22.68580 1374.000
22.84804 1376.000
23.01028 1254.000
23.17252 954.000
23.33476 1481.000
23.49700 2481.000
23.65924 1752.000
23.82148 1400.000
23.98373 1249.000
24.14597 1230.000
24.30821 1549.000
24.47045 1644.000
24.63269 1091.000
24.79493 1324.000
24.95717 1038.000
25.11941 1357.000
25.28165 2041.000
25.44389 1578.000
25.60613 969.000
25.76837 1064.000
25.93062 1301.000
26.09286 1800.000
26.25510 1366.000
26.41734 1311.000
26.57958 1347.000
26.74182 1131.000
26.90406 1342.000
27.06630 1259.000
27.22854 1002.000
27.39078 1079.000
27.55302 1000.000
27.71526 605.000
27.87751 604.000
28.03975 630.000
28.20199 656.000
28.36423 933.000
28.52647 1430.000
28.68871 1162.000
28.85095 910.000
29.01319 903.000
29.17543 826.000
29.33767 825.000
29.49991 749.000
29.66216 1035.000
29.82440 1251.000
29.98664 1134.000
30.14888 936.000
30.31112 746.000
30.47336 736.000
30.63560 564.000
30.79784 571.000
30.96008 651.000
31.12232 806.000
31.28456 760.000
31.44680 690.000
31.60905 885.000
31.77129 820.000
31.93353 794.000
32.09577 699.000
32.25801 654.000
32.42025 634.000
32.58249 569.000
32.74473 530.000
32.90697 587.000
33.06921 779.000
33.23145 715.000
33.39369 789.000
33.55594 607.000
33.71818 625.000
33.88042 577.000
34.04266 602.000
34.20490 607.000
34.36714 665.000
34.52938 869.000
34.69162 877.000
34.85386 829.000
35.01610 879.000
35.17834 689.000
35.34058 658.000
35.50283 565.000
35.66507 572.000
35.82731 495.000
35.98955 616.000
36.15179 739.000
36.31403 762.000
36.47627 651.000
36.63851 714.000
36.80075 771.000
36.96299 635.000
37.12523 596.000
37.28748 613.000
37.44972 586.000
37.61196 565.000
37.77420 610.000
37.93644 660.000
38.09868 700.000
38.26092 576.000
38.42316 604.000
38.58540 576.000
38.74764 565.000
38.90988 581.000
39.07212 622.000
39.23437 559.000
39.39661 577.000
39.55885 649.000
39.72109 594.000
39.88333 631.000
40.04557 642.000
40.20781 710.000
40.37005 732.000
40.53229 788.000
40.69453 580.000
40.85677 542.000
41.01901 574.000
41.18126 614.000
41.34350 565.000
41.50574 599.000
41.66798 640.000
41.83022 614.000
41.99246 509.000
42.15470 462.000
42.31694 501.000
42.47918 503.000
42.64142 487.000
42.80366 501.000
42.96590 479.000
43.12815 530.000
43.29039 574.000
43.45263 573.000
43.61487 624.000
43.77711 635.000
43.93935 654.000
44.10159 589.000
44.26383 575.000
44.42607 586.000
44.58831 560.000
44.75055 548.000
44.91280 565.000
45.07504 577.000
45.23728 490.000
45.39952 517.000
45.56176 576.000
45.72400 541.000
45.88624 549.000
46.04848 536.000
46.21072 544.000
46.37296 590.000
46.53520 594.000
46.69744 593.000
46.85969 481.000
47.02193 513.000
47.18417 571.000
47.34641 542.000
47.50865 519.000
47.67089 516.000
47.83313 491.000
47.99537 515.000
48.15761 501.000
48.31985 511.000
48.48209 440.000
48.64433 485.000
48.80658 415.000
48.96882 477.000
49.13106 516.000
49.29330 463.000
49.45554 504.000
49.61778 448.000
49.78002 460.000
49.94226 464.000
50.10450 479.000
50.26674 460.000
50.42898 499.000
50.59122 508.000
50.75347 500.000
50.91571 444.000
50.99683 439.000