File: Task01/nick/files/ESI_material_XRD/kinetics/crystal_size_analysis/50ul IPA/2004_RVR_IPA_5min.xy
5.00155 802.000
5.16379 770.000
5.32603 723.000
5.48827 621.000
5.65051 623.000
5.81275 544.000
5.97499 497.000
6.13723 509.000
6.29947 612.000
6.46171 721.000
6.62395 544.000
6.78620 1226.000
6.94844 475.000
7.11068 411.000
7.27292 349.000
7.43516 345.000
7.59740 332.000
7.75964 289.000
7.92188 356.000
8.08412 376.000
8.24636 623.000
8.40860 1716.000
8.57084 2826.000
8.73309 1595.000
8.89533 553.000
9.05757 401.000
9.21981 446.000
9.38205 1159.000
9.54429 1678.000
9.70653 870.000
9.86877 2762.000
10.03101 568.000
10.19325 384.000
10.35549 397.000
10.51773 489.000
10.67998 404.000
10.84222 833.000
11.00446 1133.000
11.16670 362.000
11.32894 303.000
11.49118 322.000
11.65342 328.000
11.81566 316.000
11.97790 279.000
12.14014 281.000
12.30238 348.000
12.46463 331.000
12.62687 304.000
12.78911 350.000
12.95135 447.000
13.11359 458.000
13.27583 746.000
13.43807 569.000
13.60031 1198.000
13.76255 2086.000
13.92479 661.000
14.08703 327.000
14.24927 350.000
14.41152 350.000
14.57376 439.000
14.73600 645.000
14.89824 911.000
15.06048 413.000
15.22272 407.000
15.38496 444.000
15.54720 650.000
15.70944 763.000
15.87168 794.000
16.03392 2953.000
16.19616 1251.000
16.35841 1600.000
16.52065 1496.000
16.68289 3107.000
16.84513 1212.000
17.00737 875.000
17.16961 1507.000
17.33185 3748.000
17.49409 1022.000
17.65633 2241.000
17.81857 3803.000
17.98081 1475.000
18.14305 2022.000
18.30530 4482.000
18.46754 2680.000
18.62978 1192.000
18.79202 1840.000
18.95426 2594.000
19.11650 1177.000
19.27874 1237.000
19.44098 2745.000
19.60322 2196.000
19.76546 2723.000
19.92770 3142.000
20.08995 3673.000
20.25219 1984.000
20.41443 1875.000
20.57667 2926.000
20.73891 1482.000
20.90115 1175.000
21.06339 956.000
21.22563 1473.000
21.38787 3236.000
21.55011 4661.000
21.71235 5343.000
21.87459 1226.000
22.03684 1637.000
22.19908 2531.000
22.36132 950.000
22.52356 1140.000
22.68580 1516.000
22.84804 1234.000
23.01028 1112.000
23.17252 801.000
23.33476 1241.000
23.49700 1796.000
23.65924 1336.000
23.82148 1093.000
23.98373 1314.000
24.14597 1466.000
24.30821 1075.000
24.47045 1330.000
24.63269 1045.000
24.79493 1409.000
24.95717 842.000
25.11941 1094.000
25.28165 2518.000
25.44389 1871.000
25.60613 869.000
25.76837 1379.000
25.93062 1141.000
26.09286 1766.000
26.25510 1321.000
26.41734 1391.000
26.57958 994.000
26.74182 859.000
26.90406 1171.000
27.06630 771.000
27.22854 750.000
27.39078 793.000
27.55302 800.000
27.71526 490.000
27.87751 546.000
28.03975 552.000
28.20199 489.000
28.36423 772.000
28.52647 1475.000
28.68871 1274.000
28.85095 828.000
29.01319 593.000
29.17543 690.000
29.33767 591.000
29.49991 560.000
29.66216 876.000
29.82440 1308.000
29.98664 1170.000
30.14888 1061.000
30.31112 834.000
30.47336 687.000
30.63560 522.000
30.79784 630.000
30.96008 750.000
31.12232 683.000
31.28456 871.000
31.44680 869.000
31.60905 1276.000
31.77129 999.000
31.93353 827.000
32.09577 807.000
32.25801 588.000
32.42025 576.000
32.58249 549.000
32.74473 539.000
32.90697 536.000
33.06921 613.000
33.23145 671.000
33.39369 611.000
33.55594 696.000
33.71818 695.000
33.88042 520.000
34.04266 494.000
34.20490 537.000
34.36714 457.000
34.52938 554.000
34.69162 582.000
34.85386 661.000
35.01610 911.000
35.17834 868.000
35.34058 808.000
35.50283 567.000
35.66507 488.000
35.82731 530.000
35.98955 622.000
36.15179 928.000
36.31403 884.000
36.47627 636.000
36.63851 561.000
36.80075 549.000
36.96299 480.000
37.12523 556.000
37.28748 667.000
37.44972 489.000
37.61196 464.000
37.77420 488.000
37.93644 683.000
38.09868 566.000
38.26092 565.000
38.42316 679.000
38.58540 580.000
38.74764 548.000
38.90988 678.000
39.07212 720.000
39.23437 594.000
39.39661 546.000
39.55885 579.000
39.72109 561.000
39.88333 567.000
40.04557 581.000
40.20781 591.000
40.37005 694.000
40.53229 938.000
40.69453 672.000
40.85677 495.000
41.01901 546.000
41.18126 560.000
41.34350 515.000
41.50574 470.000
41.66798 517.000
41.83022 519.000
41.99246 418.000
42.15470 411.000
42.31694 465.000
42.47918 496.000
42.64142 548.000
42.80366 480.000
42.96590 473.000
43.12815 567.000
43.29039 542.000
43.45263 530.000
43.61487 513.000
43.77711 535.000
43.93935 562.000
44.10159 530.000
44.26383 602.000
44.42607 682.000
44.58831 687.000
44.75055 577.000
44.91280 568.000
45.07504 519.000
45.23728 565.000
45.39952 499.000
45.56176 586.000
45.72400 512.000
45.88624 496.000
46.04848 483.000
46.21072 554.000
46.37296 594.000
46.53520 631.000
46.69744 585.000
46.85969 528.000
47.02193 533.000
47.18417 503.000
47.34641 512.000
47.50865 519.000
47.67089 478.000
47.83313 494.000
47.99537 496.000
48.15761 470.000
48.31985 484.000
48.48209 497.000
48.64433 438.000
48.80658 431.000
48.96882 459.000
49.13106 479.000
49.29330 460.000
49.45554 459.000
49.61778 422.000
49.78002 434.000
49.94226 449.000
50.00310 445.000