File: Task01/nick/files/ESI_material_XRD/kinetics/crystal_size_analysis/50ul IPA/2005_RVR_IPA_1min.xy
5.00155 808.000
5.16379 754.000
5.32603 718.000
5.48827 643.000
5.65051 621.000
5.81275 597.000
5.97499 484.000
6.13723 494.000
6.29947 503.000
6.46171 585.000
6.62395 1014.000
6.78620 4086.000
6.94844 3842.000
7.11068 609.000
7.27292 459.000
7.43516 491.000
7.59740 486.000
7.75964 413.000
7.92188 432.000
8.08412 558.000
8.24636 1430.000
8.40860 5775.000
8.57084 1760.000
8.73309 836.000
8.89533 508.000
9.05757 441.000
9.21981 430.000
9.38205 404.000
9.54429 514.000
9.70653 440.000
9.86877 555.000
10.03101 412.000
10.19325 388.000
10.35549 385.000
10.51773 785.000
10.67998 1019.000
10.84222 434.000
11.00446 501.000
11.16670 371.000
11.32894 352.000
11.49118 372.000
11.65342 350.000
11.81566 315.000
11.97790 374.000
12.14014 325.000
12.30238 389.000
12.46463 368.000
12.62687 358.000
12.78911 349.000
12.95135 334.000
13.11359 509.000
13.27583 853.000
13.43807 1161.000
13.60031 1656.000
13.76255 984.000
13.92479 441.000
14.08703 426.000
14.24927 367.000
14.41152 435.000
14.57376 749.000
14.73600 2373.000
14.89824 1191.000
15.06048 1127.000
15.22272 406.000
15.38496 426.000
15.54720 435.000
15.70944 456.000
15.87168 444.000
16.03392 632.000
16.19616 884.000
16.35841 2694.000
16.52065 2766.000
16.68289 2353.000
16.84513 3381.000
17.00737 1958.000
17.16961 5277.000
17.33185 1491.000
17.49409 786.000
17.65633 731.000
17.81857 1220.000
17.98081 2012.000
18.14305 7950.000
18.30530 2452.000
18.46754 1382.000
18.62978 2154.000
18.79202 3635.000
18.95426 1546.000
19.11650 1846.000
19.27874 1071.000
19.44098 2063.000
19.60322 4758.000
19.76546 1953.000
19.92770 3960.000
20.08995 3314.000
20.25219 3476.000
20.41443 4646.000
20.57667 1532.000
20.73891 1151.000
20.90115 1007.000
21.06339 1070.000
21.22563 1923.000
21.38787 5436.000
21.55011 11647.000
21.71235 9912.000
21.87459 2505.000
22.03684 1030.000
22.19908 987.000
22.36132 1064.000
22.52356 1598.000
22.68580 1293.000
22.84804 1300.000
23.01028 1640.000
23.17252 1213.000
23.33476 1164.000
23.49700 3145.000
23.65924 3340.000
23.82148 1744.000
23.98373 1260.000
24.14597 951.000
24.30821 1322.000
24.47045 2938.000
24.63269 1345.000
24.79493 1512.000
24.95717 916.000
25.11941 1316.000
25.28165 2097.000
25.44389 1734.000
25.60613 1358.000
25.76837 857.000
25.93062 1122.000
26.09286 2184.000
26.25510 1571.000
26.41734 1276.000
26.57958 1741.000
26.74182 1590.000
26.90406 1550.000
27.06630 2036.000
27.22854 1521.000
27.39078 1266.000
27.55302 1638.000
27.71526 833.000
27.87751 610.000
28.03975 629.000
28.20199 648.000
28.36423 938.000
28.52647 1384.000
28.68871 1384.000
28.85095 878.000
29.01319 1079.000
29.17543 1296.000
29.33767 1070.000
29.49991 1041.000
29.66216 955.000
29.82440 1289.000
29.98664 1297.000
30.14888 1119.000
30.31112 844.000
30.47336 1131.000
30.63560 746.000
30.79784 583.000
30.96008 599.000
31.12232 841.000
31.28456 843.000
31.44680 618.000
31.60905 659.000
31.77129 791.000
31.93353 821.000
32.09577 866.000
32.25801 710.000
32.42025 701.000
32.58249 541.000
32.74473 638.000
32.90697 713.000
33.06921 786.000
33.23145 730.000
33.39369 918.000
33.55594 740.000
33.71818 647.000
33.88042 583.000
34.04266 732.000
34.20490 782.000
34.36714 702.000
34.52938 1106.000
34.69162 1432.000
34.85386 980.000
35.01610 1186.000
35.17834 860.000
35.34058 731.000
35.50283 701.000
35.66507 722.000
35.82731 578.000
35.98955 484.000
36.15179 631.000
36.31403 798.000
36.47627 759.000
36.63851 886.000
36.80075 962.000
36.96299 956.000
37.12523 831.000
37.28748 741.000
37.44972 659.000
37.61196 634.000
37.77420 678.000
37.93644 785.000
38.09868 875.000
38.26092 600.000
38.42316 681.000
38.58540 694.000
38.74764 639.000
38.90988 615.000
39.07212 603.000
39.23437 588.000
39.39661 645.000
39.55885 758.000
39.72109 742.000
39.88333 690.000
40.04557 699.000
40.20781 959.000
40.37005 973.000
40.53229 844.000
40.69453 631.000
40.85677 618.000
41.01901 624.000
41.18126 630.000
41.34350 694.000
41.50574 763.000
41.66798 795.000
41.83022 927.000
41.99246 679.000
42.15470 553.000
42.31694 560.000
42.47918 572.000
42.64142 546.000
42.80366 567.000
42.96590 509.000
43.12815 584.000
43.29039 721.000
43.45263 738.000
43.61487 813.000
43.77711 758.000
43.93935 768.000
44.10159 749.000
44.26383 715.000
44.42607 619.000
44.58831 595.000
44.75055 612.000
44.91280 655.000
45.07504 623.000
45.23728 615.000
45.39952 536.000
45.56176 591.000
45.72400 657.000
45.88624 629.000
46.04848 547.000
46.21072 560.000
46.37296 624.000
46.53520 693.000
46.69744 641.000
46.85969 628.000
47.02193 565.000
47.18417 573.000
47.34641 645.000
47.50865 678.000
47.67089 663.000
47.83313 564.000
47.99537 623.000
48.15761 564.000
48.31985 508.000
48.48209 480.000
48.64433 524.000
48.80658 511.000
48.96882 488.000
49.13106 481.000
49.29330 496.000
49.45554 547.000
49.61778 541.000
49.78002 561.000
49.94226 512.000
50.00310 508.000