File: Task01/nick/files/ESI_material_XRD/kinetics/crystal_size_analysis/50ul IPA/2006_RVR_IPA_30m.xy
5.00155 874.000
5.16379 747.000
5.32603 772.000
5.48827 642.000
5.65051 676.000
5.81275 598.000
5.97499 542.000
6.13723 557.000
6.29947 677.000
6.46171 1100.000
6.62395 498.000
6.78620 610.000
6.94844 453.000
7.11068 459.000
7.27292 414.000
7.43516 395.000
7.59740 379.000
7.75964 430.000
7.92188 440.000
8.08412 471.000
8.24636 502.000
8.40860 920.000
8.57084 3785.000
8.73309 3989.000
8.89533 762.000
9.05757 558.000
9.21981 571.000
9.38205 1550.000
9.54429 3892.000
9.70653 1234.000
9.86877 5228.000
10.03101 955.000
10.19325 526.000
10.35549 637.000
10.51773 573.000
10.67998 519.000
10.84222 1146.000
11.00446 2812.000
11.16670 534.000
11.32894 446.000
11.49118 440.000
11.65342 421.000
11.81566 439.000
11.97790 358.000
12.14014 436.000
12.30238 438.000
12.46463 443.000
12.62687 361.000
12.78911 467.000
12.95135 590.000
13.11359 583.000
13.27583 1183.000
13.43807 572.000
13.60031 1283.000
13.76255 3561.000
13.92479 1227.000
14.08703 572.000
14.24927 460.000
14.41152 499.000
14.57376 506.000
14.73600 561.000
14.89824 1177.000
15.06048 579.000
15.22272 433.000
15.38496 558.000
15.54720 850.000
15.70944 1155.000
15.87168 938.000
16.03392 3858.000
16.19616 2140.000
16.35841 1368.000
16.52065 1706.000
16.68289 4734.000
16.84513 1187.000
17.00737 903.000
17.16961 1554.000
17.33185 6127.000
17.49409 1780.000
17.65633 3120.000
17.81857 8837.000
17.98081 1928.000
18.14305 1833.000
18.30530 6496.000
18.46754 6358.000
18.62978 1339.000
18.79202 1990.000
18.95426 4717.000
19.11650 1733.000
19.27874 1516.000
19.44098 2941.000
19.60322 2928.000
19.76546 4200.000
19.92770 3222.000
20.08995 6859.000
20.25219 2144.000
20.41443 2595.000
20.57667 4156.000
20.73891 2881.000
20.90115 1657.000
21.06339 1343.000
21.22563 1610.000
21.38787 2898.000
21.55011 4408.000
21.71235 8661.000
21.87459 1757.000
22.03684 1850.000
22.19908 3687.000
22.36132 1337.000
22.52356 1377.000
22.68580 1937.000
22.84804 1686.000
23.01028 1135.000
23.17252 1136.000
23.33476 1347.000
23.49700 2203.000
23.65924 1372.000
23.82148 1267.000
23.98373 1914.000
24.14597 1969.000
24.30821 1375.000
24.47045 1484.000
24.63269 1192.000
24.79493 2097.000
24.95717 1232.000
25.11941 1084.000
25.28165 2698.000
25.44389 2934.000
25.60613 1115.000
25.76837 1699.000
25.93062 1435.000
26.09286 2308.000
26.25510 1718.000
26.41734 1739.000
26.57958 1539.000
26.74182 859.000
26.90406 1332.000
27.06630 835.000
27.22854 691.000
27.39078 840.000
27.55302 1014.000
27.71526 660.000
27.87751 622.000
28.03975 740.000
28.20199 644.000
28.36423 825.000
28.52647 1832.000
28.68871 1984.000
28.85095 1267.000
29.01319 646.000
29.17543 717.000
29.33767 694.000
29.49991 628.000
29.66216 932.000
29.82440 1785.000
29.98664 1442.000
30.14888 1475.000
30.31112 1146.000
30.47336 801.000
30.63560 579.000
30.79784 783.000
30.96008 1021.000
31.12232 780.000
31.28456 990.000
31.44680 1156.000
31.60905 1613.000
31.77129 1441.000
31.93353 1015.000
32.09577 1174.000
32.25801 686.000
32.42025 843.000
32.58249 654.000
32.74473 688.000
32.90697 600.000
33.06921 739.000
33.23145 847.000
33.39369 654.000
33.55594 782.000
33.71818 963.000
33.88042 629.000
34.04266 584.000
34.20490 654.000
34.36714 535.000
34.52938 567.000
34.69162 677.000
34.85386 751.000
35.01610 1090.000
35.17834 1017.000
35.34058 1034.000
35.50283 594.000
35.66507 604.000
35.82731 543.000
35.98955 784.000
36.15179 1044.000
36.31403 1227.000
36.47627 842.000
36.63851 655.000
36.80075 625.000
36.96299 581.000
37.12523 629.000
37.28748 784.000
37.44972 701.000
37.61196 542.000
37.77420 531.000
37.93644 711.000
38.09868 691.000
38.26092 740.000
38.42316 813.000
38.58540 710.000
38.74764 614.000
38.90988 786.000
39.07212 971.000
39.23437 666.000
39.39661 641.000
39.55885 743.000
39.72109 663.000
39.88333 671.000
40.04557 667.000
40.20781 719.000
40.37005 796.000
40.53229 1101.000
40.69453 939.000
40.85677 641.000
41.01901 643.000
41.18126 601.000
41.34350 628.000
41.50574 505.000
41.66798 530.000
41.83022 604.000
41.99246 537.000
42.15470 502.000
42.31694 535.000
42.47918 553.000
42.64142 692.000
42.80366 579.000
42.96590 563.000
43.12815 619.000
43.29039 739.000
43.45263 626.000
43.61487 676.000
43.77711 706.000
43.93935 613.000
44.10159 596.000
44.26383 680.000
44.42607 812.000
44.58831 894.000
44.75055 772.000
44.91280 702.000
45.07504 643.000
45.23728 624.000
45.39952 666.000
45.56176 612.000
45.72400 613.000
45.88624 568.000
46.04848 584.000
46.21072 663.000
46.37296 668.000
46.53520 730.000
46.69744 664.000
46.85969 597.000
47.02193 546.000
47.18417 557.000
47.34641 604.000
47.50865 643.000
47.67089 585.000
47.83313 597.000
47.99537 582.000
48.15761 582.000
48.31985 586.000
48.48209 524.000
48.64433 534.000
48.80658 581.000
48.96882 533.000
49.13106 594.000
49.29330 553.000
49.45554 500.000
49.61778 460.000
49.78002 495.000
49.94226 488.000
50.00310 489.000