File: Task01/nick/files/ESI_material_XRD/kinetics/crystal_size_analysis/50ul IPA/2007_RVR_IPA_15m.xy
5.00155 830.000
5.16379 718.000
5.32603 677.000
5.48827 571.000
5.65051 557.000
5.81275 514.000
5.97499 504.000
6.13723 481.000
6.29947 556.000
6.46171 942.000
6.62395 483.000
6.78620 454.000
6.94844 416.000
7.11068 350.000
7.27292 355.000
7.43516 358.000
7.59740 384.000
7.75964 411.000
7.92188 373.000
8.08412 400.000
8.24636 448.000
8.40860 672.000
8.57084 2468.000
8.73309 5772.000
8.89533 722.000
9.05757 518.000
9.21981 542.000
9.38205 1164.000
9.54429 3736.000
9.70653 1081.000
9.86877 3896.000
10.03101 1541.000
10.19325 642.000
10.35549 532.000
10.51773 569.000
10.67998 433.000
10.84222 811.000
11.00446 2902.000
11.16670 559.000
11.32894 425.000
11.49118 429.000
11.65342 374.000
11.81566 371.000
11.97790 392.000
12.14014 410.000
12.30238 404.000
12.46463 487.000
12.62687 352.000
12.78911 405.000
12.95135 465.000
13.11359 607.000
13.27583 1002.000
13.43807 642.000
13.60031 958.000
13.76255 3460.000
13.92479 1995.000
14.08703 584.000
14.24927 407.000
14.41152 461.000
14.57376 449.000
14.73600 517.000
14.89824 961.000
15.06048 546.000
15.22272 483.000
15.38496 461.000
15.54720 721.000
15.70944 1324.000
15.87168 911.000
16.03392 2829.000
16.19616 3961.000
16.35841 1160.000
16.52065 1813.000
16.68289 3754.000
16.84513 1628.000
17.00737 812.000
17.16961 1191.000
17.33185 4633.000
17.49409 3128.000
17.65633 2128.000
17.81857 9105.000
17.98081 2094.000
18.14305 1519.000
18.30530 4848.000
18.46754 9040.000
18.62978 1391.000
18.79202 1615.000
18.95426 4653.000
19.11650 2161.000
19.27874 1376.000
19.44098 2493.000
19.60322 3715.000
19.76546 3381.000
19.92770 3302.000
20.08995 7069.000
20.25219 2471.000
20.41443 2652.000
20.57667 3156.000
20.73891 4714.000
20.90115 1567.000
21.06339 1347.000
21.22563 1364.000
21.38787 2443.000
21.55011 4444.000
21.71235 7887.000
21.87459 2702.000
22.03684 1689.000
22.19908 3529.000
22.36132 1745.000
22.52356 1218.000
22.68580 1662.000
22.84804 2144.000
23.01028 1068.000
23.17252 1244.000
23.33476 1167.000
23.49700 2229.000
23.65924 1378.000
23.82148 1327.000
23.98373 1792.000
24.14597 2132.000
24.30821 1783.000
24.47045 1397.000
24.63269 1112.000
24.79493 2073.000
24.95717 1455.000
25.11941 991.000
25.28165 2320.000
25.44389 3651.000
25.60613 1528.000
25.76837 1489.000
25.93062 1627.000
26.09286 1925.000
26.25510 2143.000
26.41734 1839.000
26.57958 1701.000
26.74182 855.000
26.90406 1124.000
27.06630 1118.000
27.22854 786.000
27.39078 926.000
27.55302 1019.000
27.71526 740.000
27.87751 667.000
28.03975 751.000
28.20199 651.000
28.36423 735.000
28.52647 1542.000
28.68871 2429.000
28.85095 1586.000
29.01319 798.000
29.17543 709.000
29.33767 738.000
29.49991 600.000
29.66216 795.000
29.82440 1801.000
29.98664 1600.000
30.14888 1648.000
30.31112 1227.000
30.47336 874.000
30.63560 599.000
30.79784 763.000
30.96008 925.000
31.12232 741.000
31.28456 922.000
31.44680 1319.000
31.60905 1524.000
31.77129 1889.000
31.93353 1131.000
32.09577 1318.000
32.25801 832.000
32.42025 825.000
32.58249 720.000
32.74473 675.000
32.90697 546.000
33.06921 739.000
33.23145 1030.000
33.39369 673.000
33.55594 794.000
33.71818 1011.000
33.88042 705.000
34.04266 624.000
34.20490 607.000
34.36714 619.000
34.52938 509.000
34.69162 616.000
34.85386 696.000
35.01610 1013.000
35.17834 1137.000
35.34058 1130.000
35.50283 755.000
35.66507 639.000
35.82731 554.000
35.98955 741.000
36.15179 991.000
36.31403 1225.000
36.47627 997.000
36.63851 666.000
36.80075 657.000
36.96299 563.000
37.12523 634.000
37.28748 860.000
37.44972 776.000
37.61196 587.000
37.77420 520.000
37.93644 667.000
38.09868 778.000
38.26092 693.000
38.42316 839.000
38.58540 850.000
38.74764 673.000
38.90988 752.000
39.07212 1055.000
39.23437 837.000
39.39661 617.000
39.55885 716.000
39.72109 721.000
39.88333 679.000
40.04557 712.000
40.20781 696.000
40.37005 771.000
40.53229 1118.000
40.69453 1143.000
40.85677 685.000
41.01901 652.000
41.18126 674.000
41.34350 682.000
41.50574 593.000
41.66798 529.000
41.83022 609.000
41.99246 547.000
42.15470 525.000
42.31694 526.000
42.47918 553.000
42.64142 707.000
42.80366 663.000
42.96590 610.000
43.12815 608.000
43.29039 711.000
43.45263 686.000
43.61487 638.000
43.77711 746.000
43.93935 644.000
44.10159 603.000
44.26383 675.000
44.42607 797.000
44.58831 915.000
44.75055 813.000
44.91280 766.000
45.07504 663.000
45.23728 709.000
45.39952 679.000
45.56176 703.000
45.72400 663.000
45.88624 621.000
46.04848 608.000
46.21072 676.000
46.37296 714.000
46.53520 732.000
46.69744 747.000
46.85969 629.000
47.02193 632.000
47.18417 603.000
47.34641 596.000
47.50865 662.000
47.67089 607.000
47.83313 559.000
47.99537 653.000
48.15761 621.000
48.31985 592.000
48.48209 634.000
48.64433 564.000
48.80658 529.000
48.96882 613.000
49.13106 578.000
49.29330 599.000
49.45554 575.000
49.61778 504.000
49.78002 528.000
49.94226 533.000
50.00310 515.000