File: Task01/nick/files/ESI_material_XRD/kinetics/crystal_size_analysis/50ul IPA/2016_RVR_IPA_7.5m.xy
5.00155 880.000
5.16379 824.000
5.32603 730.000
5.48827 652.000
5.65051 627.000
5.81275 629.000
5.97499 644.000
6.13723 566.000
6.29947 714.000
6.46171 1133.000
6.62395 583.000
6.78620 799.000
6.94844 651.000
7.11068 426.000
7.27292 456.000
7.43516 454.000
7.59740 406.000
7.75964 411.000
7.92188 438.000
8.08412 428.000
8.24636 581.000
8.40860 1365.000
8.57084 4176.000
8.73309 4876.000
8.89533 842.000
9.05757 626.000
9.21981 628.000
9.38205 1556.000
9.54429 4020.000
9.70653 1314.000
9.86877 4947.000
10.03101 1249.000
10.19325 601.000
10.35549 539.000
10.51773 634.000
10.67998 510.000
10.84222 1061.000
11.00446 2727.000
11.16670 552.000
11.32894 409.000
11.49118 395.000
11.65342 393.000
11.81566 387.000
11.97790 382.000
12.14014 408.000
12.30238 426.000
12.46463 473.000
12.62687 370.000
12.78911 400.000
12.95135 549.000
13.11359 606.000
13.27583 1128.000
13.43807 641.000
13.60031 1338.000
13.76255 3595.000
13.92479 1420.000
14.08703 470.000
14.24927 436.000
14.41152 434.000
14.57376 478.000
14.73600 688.000
14.89824 1077.000
15.06048 564.000
15.22272 496.000
15.38496 461.000
15.54720 827.000
15.70944 1226.000
15.87168 924.000
16.03392 3944.000
16.19616 2661.000
16.35841 1566.000
16.52065 1819.000
16.68289 4583.000
16.84513 1524.000
17.00737 900.000
17.16961 1543.000
17.33185 5578.000
17.49409 2115.000
17.65633 2467.000
17.81857 8504.000
17.98081 2016.000
18.14305 2021.000
18.30530 6038.000
18.46754 6663.000
18.62978 1396.000
18.79202 1916.000
18.95426 4551.000
19.11650 1942.000
19.27874 1570.000
19.44098 3120.000
19.60322 3192.000
19.76546 3944.000
19.92770 3284.000
20.08995 6727.000
20.25219 2413.000
20.41443 2683.000
20.57667 3926.000
20.73891 3240.000
20.90115 1639.000
21.06339 1312.000
21.22563 1572.000
21.38787 2978.000
21.55011 4990.000
21.71235 9068.000
21.87459 2072.000
22.03684 1877.000
22.19908 3919.000
22.36132 1484.000
22.52356 1401.000
22.68580 1825.000
22.84804 1955.000
23.01028 1179.000
23.17252 1124.000
23.33476 1347.000
23.49700 2468.000
23.65924 1535.000
23.82148 1338.000
23.98373 1814.000
24.14597 2004.000
24.30821 1501.000
24.47045 1601.000
24.63269 1185.000
24.79493 2159.000
24.95717 1271.000
25.11941 1090.000
25.28165 2879.000
25.44389 3165.000
25.60613 1297.000
25.76837 1666.000
25.93062 1553.000
26.09286 2149.000
26.25510 1938.000
26.41734 1793.000
26.57958 1520.000
26.74182 865.000
26.90406 1324.000
27.06630 942.000
27.22854 773.000
27.39078 841.000
27.55302 1088.000
27.71526 724.000
27.87751 602.000
28.03975 682.000
28.20199 632.000
28.36423 826.000
28.52647 1829.000
28.68871 2074.000
28.85095 1388.000
29.01319 704.000
29.17543 791.000
29.33767 742.000
29.49991 648.000
29.66216 911.000
29.82440 1852.000
29.98664 1493.000
30.14888 1546.000
30.31112 1094.000
30.47336 870.000
30.63560 597.000
30.79784 741.000
30.96008 864.000
31.12232 816.000
31.28456 1027.000
31.44680 1202.000
31.60905 1611.000
31.77129 1597.000
31.93353 1057.000
32.09577 1337.000
32.25801 814.000
32.42025 821.000
32.58249 670.000
32.74473 656.000
32.90697 606.000
33.06921 761.000
33.23145 889.000
33.39369 681.000
33.55594 748.000
33.71818 1000.000
33.88042 725.000
34.04266 543.000
34.20490 617.000
34.36714 533.000
34.52938 584.000
34.69162 660.000
34.85386 764.000
35.01610 1111.000
35.17834 1122.000
35.34058 1127.000
35.50283 671.000
35.66507 636.000
35.82731 555.000
35.98955 743.000
36.15179 1001.000
36.31403 1221.000
36.47627 889.000
36.63851 764.000
36.80075 736.000
36.96299 589.000
37.12523 588.000
37.28748 833.000
37.44972 687.000
37.61196 567.000
37.77420 564.000
37.93644 702.000
38.09868 729.000
38.26092 732.000
38.42316 831.000
38.58540 686.000
38.74764 662.000
38.90988 691.000
39.07212 1068.000
39.23437 761.000
39.39661 637.000
39.55885 680.000
39.72109 727.000
39.88333 657.000
40.04557 694.000
40.20781 680.000
40.37005 825.000
40.53229 1110.000
40.69453 1040.000
40.85677 686.000
41.01901 648.000
41.18126 658.000
41.34350 676.000
41.50574 582.000
41.66798 548.000
41.83022 600.000
41.99246 523.000
42.15470 490.000
42.31694 535.000
42.47918 615.000
42.64142 692.000
42.80366 610.000
42.96590 577.000
43.12815 652.000
43.29039 707.000
43.45263 612.000
43.61487 643.000
43.77711 679.000
43.93935 686.000
44.10159 610.000
44.26383 619.000
44.42607 836.000
44.58831 871.000
44.75055 795.000
44.91280 681.000
45.07504 652.000
45.23728 617.000
45.39952 629.000
45.56176 713.000
45.72400 618.000
45.88624 606.000
46.04848 555.000
46.21072 662.000
46.37296 682.000
46.53520 736.000
46.69744 739.000
46.85969 572.000
47.02193 607.000
47.18417 603.000
47.34641 628.000
47.50865 658.000
47.67089 625.000
47.83313 586.000
47.99537 656.000
48.15761 634.000
48.31985 588.000
48.48209 627.000
48.64433 535.000
48.80658 608.000
48.96882 613.000
49.13106 612.000
49.29330 547.000
49.45554 548.000
49.61778 481.000
49.78002 471.000
49.94226 583.000
50.00310 565.000