File: Task01/nick/files/ESI_material_XRD/steady_state/crystal_size_analysis/Volumes_EtOAc/1928_RVR_30ul_mill_EtOAc.xy
5.00155 866.000
5.16379 777.000
5.32603 729.000
5.48827 673.000
5.65051 646.000
5.81275 562.000
5.97499 598.000
6.13723 560.000
6.29947 659.000
6.46171 874.000
6.62395 527.000
6.78620 563.000
6.94844 500.000
7.11068 440.000
7.27292 438.000
7.43516 436.000
7.59740 426.000
7.75964 468.000
7.92188 449.000
8.08412 460.000
8.24636 558.000
8.40860 902.000
8.57084 2972.000
8.73309 2852.000
8.89533 749.000
9.05757 565.000
9.21981 629.000
9.38205 1388.000
9.54429 2687.000
9.70653 1192.000
9.86877 3884.000
10.03101 1086.000
10.19325 568.000
10.35549 501.000
10.51773 559.000
10.67998 506.000
10.84222 1105.000
11.00446 2211.000
11.16670 579.000
11.32894 416.000
11.49118 473.000
11.65342 417.000
11.81566 427.000
11.97790 372.000
12.14014 384.000
12.30238 455.000
12.46463 415.000
12.62687 417.000
12.78911 391.000
12.95135 562.000
13.11359 623.000
13.27583 941.000
13.43807 649.000
13.60031 1295.000
13.76255 2717.000
13.92479 1058.000
14.08703 566.000
14.24927 445.000
14.41152 480.000
14.57376 441.000
14.73600 564.000
14.89824 861.000
15.06048 545.000
15.22272 510.000
15.38496 580.000
15.54720 828.000
15.70944 1084.000
15.87168 949.000
16.03392 2855.000
16.19616 1821.000
16.35841 1324.000
16.52065 1574.000
16.68289 2954.000
16.84513 1166.000
17.00737 981.000
17.16961 1507.000
17.33185 4474.000
17.49409 1990.000
17.65633 3373.000
17.81857 7857.000
17.98081 1819.000
18.14305 2028.000
18.30530 5873.000
18.46754 5385.000
18.62978 1536.000
18.79202 2064.000
18.95426 3542.000
19.11650 1643.000
19.27874 1543.000
19.44098 2629.000
19.60322 2466.000
19.76546 3795.000
19.92770 3457.000
20.08995 4578.000
20.25219 2330.000
20.41443 2688.000
20.57667 3963.000
20.73891 2961.000
20.90115 1528.000
21.06339 1236.000
21.22563 1597.000
21.38787 2644.000
21.55011 3953.000
21.71235 5646.000
21.87459 1999.000
22.03684 1834.000
22.19908 2513.000
22.36132 1306.000
22.52356 1289.000
22.68580 1721.000
22.84804 1472.000
23.01028 1096.000
23.17252 1009.000
23.33476 1287.000
23.49700 1760.000
23.65924 1278.000
23.82148 1208.000
23.98373 1636.000
24.14597 1793.000
24.30821 1233.000
24.47045 1314.000
24.63269 1201.000
24.79493 1701.000
24.95717 1169.000
25.11941 1170.000
25.28165 2411.000
25.44389 2296.000
25.60613 1148.000
25.76837 1353.000
25.93062 1407.000
26.09286 1830.000
26.25510 1710.000
26.41734 1521.000
26.57958 1139.000
26.74182 841.000
26.90406 1152.000
27.06630 792.000
27.22854 736.000
27.39078 759.000
27.55302 833.000
27.71526 610.000
27.87751 660.000
28.03975 606.000
28.20199 635.000
28.36423 863.000
28.52647 1666.000
28.68871 1753.000
28.85095 1118.000
29.01319 638.000
29.17543 628.000
29.33767 644.000
29.49991 646.000
29.66216 931.000
29.82440 1485.000
29.98664 1303.000
30.14888 1201.000
30.31112 973.000
30.47336 698.000
30.63560 597.000
30.79784 689.000
30.96008 823.000
31.12232 666.000
31.28456 872.000
31.44680 1066.000
31.60905 1382.000
31.77129 1217.000
31.93353 939.000
32.09577 959.000
32.25801 728.000
32.42025 744.000
32.58249 607.000
32.74473 627.000
32.90697 562.000
33.06921 720.000
33.23145 685.000
33.39369 670.000
33.55594 667.000
33.71818 772.000
33.88042 611.000
34.04266 550.000
34.20490 537.000
34.36714 492.000
34.52938 540.000
34.69162 572.000
34.85386 713.000
35.01610 857.000
35.17834 799.000
35.34058 785.000
35.50283 607.000
35.66507 553.000
35.82731 587.000
35.98955 718.000
36.15179 914.000
36.31403 962.000
36.47627 703.000
36.63851 588.000
36.80075 589.000
36.96299 486.000
37.12523 566.000
37.28748 701.000
37.44972 591.000
37.61196 525.000
37.77420 520.000
37.93644 628.000
38.09868 592.000
38.26092 667.000
38.42316 680.000
38.58540 630.000
38.74764 614.000
38.90988 625.000
39.07212 786.000
39.23437 643.000
39.39661 602.000
39.55885 575.000
39.72109 601.000
39.88333 581.000
40.04557 602.000
40.20781 662.000
40.37005 701.000
40.53229 863.000
40.69453 783.000
40.85677 584.000
41.01901 581.000
41.18126 597.000
41.34350 561.000
41.50574 491.000
41.66798 500.000
41.83022 505.000
41.99246 448.000
42.15470 471.000
42.31694 404.000
42.47918 578.000
42.64142 587.000
42.80366 554.000
42.96590 528.000
43.12815 559.000
43.29039 741.000
43.45263 613.000
43.61487 579.000
43.77711 623.000
43.93935 575.000
44.10159 550.000
44.26383 621.000
44.42607 683.000
44.58831 656.000
44.75055 677.000
44.91280 633.000
45.07504 605.000
45.23728 544.000
45.39952 581.000
45.56176 598.000
45.72400 584.000
45.88624 527.000
46.04848 541.000
46.21072 564.000
46.37296 578.000
46.53520 607.000
46.69744 620.000
46.85969 560.000
47.02193 531.000
47.18417 503.000
47.34641 550.000
47.50865 545.000
47.67089 514.000
47.83313 505.000
47.99537 596.000
48.15761 510.000
48.31985 531.000
48.48209 506.000
48.64433 526.000
48.80658 491.000
48.96882 512.000
49.13106 510.000
49.29330 494.000
49.45554 465.000
49.61778 456.000
49.78002 475.000
49.94226 439.000
50.00310 450.000