File: Task01/nick/files/ESI_material_XRD/steady_state/crystal_size_analysis/Volumes_EtOAc/1929_RVR_20ul_mill_EtOAc.xy
5.00155 923.000
5.16379 803.000
5.32603 790.000
5.48827 754.000
5.65051 649.000
5.81275 671.000
5.97499 575.000
6.13723 600.000
6.29947 583.000
6.46171 771.000
6.62395 1388.000
6.78620 5173.000
6.94844 1440.000
7.11068 671.000
7.27292 498.000
7.43516 484.000
7.59740 458.000
7.75964 509.000
7.92188 518.000
8.08412 735.000
8.24636 2057.000
8.40860 5053.000
8.57084 1389.000
8.73309 940.000
8.89533 523.000
9.05757 507.000
9.21981 495.000
9.38205 699.000
9.54429 772.000
9.70653 589.000
9.86877 1049.000
10.03101 545.000
10.19325 428.000
10.35549 513.000
10.51773 979.000
10.67998 654.000
10.84222 600.000
11.00446 671.000
11.16670 402.000
11.32894 409.000
11.49118 416.000
11.65342 390.000
11.81566 377.000
11.97790 374.000
12.14014 392.000
12.30238 406.000
12.46463 391.000
12.62687 477.000
12.78911 404.000
12.95135 459.000
13.11359 639.000
13.27583 959.000
13.43807 1056.000
13.60031 1549.000
13.76255 1051.000
13.92479 503.000
14.08703 495.000
14.24927 455.000
14.41152 524.000
14.57376 1068.000
14.73600 1630.000
14.89824 1407.000
15.06048 589.000
15.22272 491.000
15.38496 522.000
15.54720 555.000
15.70944 593.000
15.87168 621.000
16.03392 1158.000
16.19616 1144.000
16.35841 3153.000
16.52065 1793.000
16.68289 2379.000
16.84513 2392.000
17.00737 2365.000
17.16961 3968.000
17.33185 1815.000
17.49409 1038.000
17.65633 1377.000
17.81857 2357.000
17.98081 3064.000
18.14305 6327.000
18.30530 2763.000
18.46754 2007.000
18.62978 2668.000
18.79202 2863.000
18.95426 1964.000
19.11650 1490.000
19.27874 1345.000
19.44098 2964.000
19.60322 3084.000
19.76546 2520.000
19.92770 4295.000
20.08995 2874.000
20.25219 3148.000
20.41443 3279.000
20.57667 1812.000
20.73891 1332.000
20.90115 1162.000
21.06339 1384.000
21.22563 2486.000
21.38787 6628.000
21.55011 9804.000
21.71235 6511.000
21.87459 1822.000
22.03684 1274.000
22.19908 1231.000
22.36132 1220.000
22.52356 1507.000
22.68580 1327.000
22.84804 1473.000
23.01028 1459.000
23.17252 1075.000
23.33476 1502.000
23.49700 3095.000
23.65924 2231.000
23.82148 1532.000
23.98373 1166.000
24.14597 1119.000
24.30821 1775.000
24.47045 1886.000
24.63269 1141.000
24.79493 1257.000
24.95717 1014.000
25.11941 1561.000
25.28165 1885.000
25.44389 1590.000
25.60613 1055.000
25.76837 915.000
25.93062 1367.000
26.09286 1865.000
26.25510 1302.000
26.41734 1398.000
26.57958 1605.000
26.74182 1239.000
26.90406 1602.000
27.06630 1488.000
27.22854 1220.000
27.39078 1202.000
27.55302 1225.000
27.71526 673.000
27.87751 542.000
28.03975 628.000
28.20199 674.000
28.36423 1003.000
28.52647 1322.000
28.68871 1081.000
28.85095 943.000
29.01319 1035.000
29.17543 1022.000
29.33767 1076.000
29.49991 889.000
29.66216 1057.000
29.82440 1191.000
29.98664 1078.000
30.14888 916.000
30.31112 886.000
30.47336 818.000
30.63560 615.000
30.79784 558.000
30.96008 658.000
31.12232 834.000
31.28456 757.000
31.44680 641.000
31.60905 743.000
31.77129 772.000
31.93353 822.000
32.09577 763.000
32.25801 706.000
32.42025 666.000
32.58249 574.000
32.74473 605.000
32.90697 588.000
33.06921 674.000
33.23145 813.000
33.39369 801.000
33.55594 640.000
33.71818 553.000
33.88042 613.000
34.04266 658.000
34.20490 677.000
34.36714 736.000
34.52938 1097.000
34.69162 985.000
34.85386 874.000
35.01610 939.000
35.17834 697.000
35.34058 676.000
35.50283 614.000
35.66507 622.000
35.82731 552.000
35.98955 596.000
36.15179 673.000
36.31403 685.000
36.47627 745.000
36.63851 786.000
36.80075 799.000
36.96299 699.000
37.12523 710.000
37.28748 664.000
37.44972 650.000
37.61196 597.000
37.77420 619.000
37.93644 759.000
38.09868 760.000
38.26092 614.000
38.42316 628.000
38.58540 587.000
38.74764 557.000
38.90988 589.000
39.07212 584.000
39.23437 606.000
39.39661 667.000
39.55885 677.000
39.72109 722.000
39.88333 679.000
40.04557 695.000
40.20781 832.000
40.37005 799.000
40.53229 751.000
40.69453 635.000
40.85677 595.000
41.01901 572.000
41.18126 677.000
41.34350 676.000
41.50574 691.000
41.66798 716.000
41.83022 714.000
41.99246 553.000
42.15470 532.000
42.31694 505.000
42.47918 502.000
42.64142 543.000
42.80366 525.000
42.96590 534.000
43.12815 607.000
43.29039 641.000
43.45263 622.000
43.61487 684.000
43.77711 651.000
43.93935 719.000
44.10159 656.000
44.26383 597.000
44.42607 614.000
44.58831 535.000
44.75055 606.000
44.91280 563.000
45.07504 531.000
45.23728 509.000
45.39952 539.000
45.56176 570.000
45.72400 546.000
45.88624 549.000
46.04848 580.000
46.21072 535.000
46.37296 609.000
46.53520 580.000
46.69744 599.000
46.85969 482.000
47.02193 535.000
47.18417 566.000
47.34641 615.000
47.50865 587.000
47.67089 532.000
47.83313 587.000
47.99537 560.000
48.15761 487.000
48.31985 477.000
48.48209 463.000
48.64433 498.000
48.80658 430.000
48.96882 446.000
49.13106 495.000
49.29330 473.000
49.45554 520.000
49.61778 506.000
49.78002 511.000
49.94226 500.000
50.00310 469.000