File: Task01/nick/files/ESI_material_XRD/steady_state/crystal_size_analysis/Volumes_EtOAc/1930_RVR_10ul_mill_EtOAc.xy
5.00155 900.000
5.16379 782.000
5.32603 733.000
5.48827 708.000
5.65051 672.000
5.81275 639.000
5.97499 558.000
6.13723 613.000
6.29947 643.000
6.46171 714.000
6.62395 1693.000
6.78620 6062.000
6.94844 1558.000
7.11068 669.000
7.27292 579.000
7.43516 521.000
7.59740 488.000
7.75964 496.000
7.92188 553.000
8.08412 811.000
8.24636 2762.000
8.40860 5167.000
8.57084 911.000
8.73309 642.000
8.89533 512.000
9.05757 459.000
9.21981 482.000
9.38205 475.000
9.54429 446.000
9.70653 453.000
9.86877 444.000
10.03101 401.000
10.19325 434.000
10.35549 494.000
10.51773 1070.000
10.67998 633.000
10.84222 432.000
11.00446 433.000
11.16670 405.000
11.32894 371.000
11.49118 398.000
11.65342 370.000
11.81566 380.000
11.97790 391.000
12.14014 382.000
12.30238 381.000
12.46463 364.000
12.62687 399.000
12.78911 409.000
12.95135 413.000
13.11359 735.000
13.27583 874.000
13.43807 1108.000
13.60031 1455.000
13.76255 597.000
13.92479 488.000
14.08703 459.000
14.24927 466.000
14.41152 542.000
14.57376 1257.000
14.73600 1780.000
14.89824 1461.000
15.06048 558.000
15.22272 519.000
15.38496 481.000
15.54720 524.000
15.70944 457.000
15.87168 524.000
16.03392 605.000
16.19616 1058.000
16.35841 3211.000
16.52065 1867.000
16.68289 2191.000
16.84513 2377.000
17.00737 2570.000
17.16961 4107.000
17.33185 1148.000
17.49409 852.000
17.65633 843.000
17.81857 1169.000
17.98081 3334.000
18.14305 6489.000
18.30530 1636.000
18.46754 1330.000
18.62978 2852.000
18.79202 2749.000
18.95426 1606.000
19.11650 1343.000
19.27874 1199.000
19.44098 2908.000
19.60322 2835.000
19.76546 2211.000
19.92770 4277.000
20.08995 2483.000
20.25219 3192.000
20.41443 3155.000
20.57667 1161.000
20.73891 960.000
20.90115 1066.000
21.06339 1423.000
21.22563 2738.000
21.38787 7123.000
21.55011 10253.000
21.71235 6180.000
21.87459 1685.000
22.03684 1060.000
22.19908 961.000
22.36132 1154.000
22.52356 1544.000
22.68580 1142.000
22.84804 1474.000
23.01028 1427.000
23.17252 1024.000
23.33476 1561.000
23.49700 3011.000
23.65924 2206.000
23.82148 1421.000
23.98373 1049.000
24.14597 1049.000
24.30821 1773.000
24.47045 1728.000
24.63269 1095.000
24.79493 1135.000
24.95717 942.000
25.11941 1451.000
25.28165 1612.000
25.44389 1425.000
25.60613 1011.000
25.76837 883.000
25.93062 1362.000
26.09286 1662.000
26.25510 1206.000
26.41734 1267.000
26.57958 1681.000
26.74182 1317.000
26.90406 1641.000
27.06630 1513.000
27.22854 1271.000
27.39078 1310.000
27.55302 1129.000
27.71526 661.000
27.87751 622.000
28.03975 614.000
28.20199 717.000
28.36423 945.000
28.52647 1163.000
28.68871 902.000
28.85095 803.000
29.01319 1017.000
29.17543 952.000
29.33767 969.000
29.49991 887.000
29.66216 975.000
29.82440 1042.000
29.98664 967.000
30.14888 832.000
30.31112 773.000
30.47336 807.000
30.63560 582.000
30.79784 558.000
30.96008 605.000
31.12232 679.000
31.28456 648.000
31.44680 561.000
31.60905 611.000
31.77129 699.000
31.93353 688.000
32.09577 653.000
32.25801 589.000
32.42025 556.000
32.58249 515.000
32.74473 569.000
32.90697 637.000
33.06921 657.000
33.23145 706.000
33.39369 722.000
33.55594 562.000
33.71818 579.000
33.88042 564.000
34.04266 626.000
34.20490 686.000
34.36714 821.000
34.52938 1112.000
34.69162 1016.000
34.85386 837.000
35.01610 828.000
35.17834 722.000
35.34058 598.000
35.50283 650.000
35.66507 574.000
35.82731 517.000
35.98955 512.000
36.15179 550.000
36.31403 611.000
36.47627 689.000
36.63851 785.000
36.80075 890.000
36.96299 729.000
37.12523 676.000
37.28748 583.000
37.44972 528.000
37.61196 576.000
37.77420 633.000
37.93644 715.000
38.09868 684.000
38.26092 530.000
38.42316 625.000
38.58540 554.000
38.74764 477.000
38.90988 504.000
39.07212 545.000
39.23437 591.000
39.39661 590.000
39.55885 616.000
39.72109 619.000
39.88333 631.000
40.04557 740.000
40.20781 787.000
40.37005 769.000
40.53229 626.000
40.69453 581.000
40.85677 538.000
41.01901 603.000
41.18126 565.000
41.34350 629.000
41.50574 703.000
41.66798 714.000
41.83022 681.000
41.99246 525.000
42.15470 480.000
42.31694 505.000
42.47918 496.000
42.64142 439.000
42.80366 501.000
42.96590 484.000
43.12815 546.000
43.29039 630.000
43.45263 658.000
43.61487 591.000
43.77711 639.000
43.93935 670.000
44.10159 667.000
44.26383 555.000
44.42607 516.000
44.58831 499.000
44.75055 561.000
44.91280 486.000
45.07504 521.000
45.23728 483.000
45.39952 478.000
45.56176 535.000
45.72400 547.000
45.88624 558.000
46.04848 487.000
46.21072 561.000
46.37296 560.000
46.53520 549.000
46.69744 551.000
46.85969 535.000
47.02193 503.000
47.18417 510.000
47.34641 621.000
47.50865 573.000
47.67089 542.000
47.83313 578.000
47.99537 520.000
48.15761 466.000
48.31985 464.000
48.48209 425.000
48.64433 456.000
48.80658 451.000
48.96882 406.000
49.13106 421.000
49.29330 408.000
49.45554 478.000
49.61778 422.000
49.78002 445.000
49.94226 455.000
50.00310 503.000