File: Task01/nick/files/ESI_material_XRD/steady_state/crystal_size_analysis/Volumes_EtOAc/1940_RVR_40ul_mill_EtOAc.xy
5.00155 800.000
5.16379 711.000
5.32603 736.000
5.48827 632.000
5.65051 606.000
5.81275 624.000
5.97499 544.000
6.13723 546.000
6.29947 665.000
6.46171 898.000
6.62395 638.000
6.78620 1397.000
6.94844 647.000
7.11068 455.000
7.27292 452.000
7.43516 374.000
7.59740 381.000
7.75964 403.000
7.92188 416.000
8.08412 453.000
8.24636 716.000
8.40860 1845.000
8.57084 3499.000
8.73309 2652.000
8.89533 635.000
9.05757 572.000
9.21981 614.000
9.38205 1458.000
9.54429 2651.000
9.70653 1214.000
9.86877 4215.000
10.03101 874.000
10.19325 532.000
10.35549 572.000
10.51773 691.000
10.67998 541.000
10.84222 1117.000
11.00446 2035.000
11.16670 507.000
11.32894 417.000
11.49118 402.000
11.65342 377.000
11.81566 391.000
11.97790 387.000
12.14014 378.000
12.30238 452.000
12.46463 375.000
12.62687 377.000
12.78911 368.000
12.95135 553.000
13.11359 592.000
13.27583 1034.000
13.43807 698.000
13.60031 1595.000
13.76255 2651.000
13.92479 880.000
14.08703 501.000
14.24927 467.000
14.41152 438.000
14.57376 494.000
14.73600 746.000
14.89824 1037.000
15.06048 477.000
15.22272 471.000
15.38496 504.000
15.54720 810.000
15.70944 978.000
15.87168 884.000
16.03392 3155.000
16.19616 1590.000
16.35841 1685.000
16.52065 1647.000
16.68289 3605.000
16.84513 1389.000
17.00737 1162.000
17.16961 1852.000
17.33185 4881.000
17.49409 1552.000
17.65633 2996.000
17.81857 6525.000
17.98081 1994.000
18.14305 2702.000
18.30530 5966.000
18.46754 4408.000
18.62978 1558.000
18.79202 2208.000
18.95426 3446.000
19.11650 1522.000
19.27874 1442.000
19.44098 2903.000
19.60322 2667.000
19.76546 3781.000
19.92770 3712.000
20.08995 4668.000
20.25219 2387.000
20.41443 2541.000
20.57667 3891.000
20.73891 2310.000
20.90115 1502.000
21.06339 1175.000
21.22563 1729.000
21.38787 3426.000
21.55011 5224.000
21.71235 6473.000
21.87459 1729.000
22.03684 1793.000
22.19908 2636.000
22.36132 1152.000
22.52356 1366.000
22.68580 1770.000
22.84804 1398.000
23.01028 1150.000
23.17252 990.000
23.33476 1390.000
23.49700 2042.000
23.65924 1475.000
23.82148 1275.000
23.98373 1711.000
24.14597 1676.000
24.30821 1308.000
24.47045 1480.000
24.63269 1219.000
24.79493 1706.000
24.95717 1040.000
25.11941 1158.000
25.28165 2722.000
25.44389 2154.000
25.60613 1022.000
25.76837 1452.000
25.93062 1348.000
26.09286 2100.000
26.25510 1606.000
26.41734 1528.000
26.57958 1215.000
26.74182 893.000
26.90406 1210.000
27.06630 911.000
27.22854 770.000
27.39078 841.000
27.55302 929.000
27.71526 612.000
27.87751 590.000
28.03975 580.000
28.20199 603.000
28.36423 847.000
28.52647 1853.000
28.68871 1640.000
28.85095 993.000
29.01319 706.000
29.17543 739.000
29.33767 673.000
29.49991 646.000
29.66216 901.000
29.82440 1483.000
29.98664 1356.000
30.14888 1291.000
30.31112 909.000
30.47336 765.000
30.63560 598.000
30.79784 681.000
30.96008 774.000
31.12232 731.000
31.28456 923.000
31.44680 978.000
31.60905 1424.000
31.77129 1155.000
31.93353 966.000
32.09577 970.000
32.25801 667.000
32.42025 737.000
32.58249 584.000
32.74473 581.000
32.90697 580.000
33.06921 750.000
33.23145 748.000
33.39369 664.000
33.55594 738.000
33.71818 735.000
33.88042 607.000
34.04266 546.000
34.20490 582.000
34.36714 506.000
34.52938 578.000
34.69162 661.000
34.85386 778.000
35.01610 978.000
35.17834 905.000
35.34058 842.000
35.50283 609.000
35.66507 515.000
35.82731 554.000
35.98955 711.000
36.15179 917.000
36.31403 924.000
36.47627 724.000
36.63851 675.000
36.80075 603.000
36.96299 584.000
37.12523 639.000
37.28748 708.000
37.44972 581.000
37.61196 495.000
37.77420 590.000
37.93644 683.000
38.09868 615.000
38.26092 708.000
38.42316 774.000
38.58540 665.000
38.74764 612.000
38.90988 680.000
39.07212 828.000
39.23437 642.000
39.39661 591.000
39.55885 617.000
39.72109 584.000
39.88333 595.000
40.04557 574.000
40.20781 625.000
40.37005 755.000
40.53229 898.000
40.69453 763.000
40.85677 556.000
41.01901 535.000
41.18126 595.000
41.34350 586.000
41.50574 523.000
41.66798 524.000
41.83022 537.000
41.99246 495.000
42.15470 427.000
42.31694 486.000
42.47918 559.000
42.64142 578.000
42.80366 524.000
42.96590 480.000
43.12815 585.000
43.29039 614.000
43.45263 568.000
43.61487 643.000
43.77711 659.000
43.93935 567.000
44.10159 516.000
44.26383 617.000
44.42607 683.000
44.58831 709.000
44.75055 658.000
44.91280 661.000
45.07504 597.000
45.23728 578.000
45.39952 620.000
45.56176 641.000
45.72400 548.000
45.88624 592.000
46.04848 523.000
46.21072 608.000
46.37296 597.000
46.53520 628.000
46.69744 613.000
46.85969 504.000
47.02193 547.000
47.18417 533.000
47.34641 501.000
47.50865 563.000
47.67089 520.000
47.83313 531.000
47.99537 582.000
48.15761 515.000
48.31985 532.000
48.48209 493.000
48.64433 476.000
48.80658 481.000
48.96882 547.000
49.13106 481.000
49.29330 483.000
49.45554 505.000
49.61778 462.000
49.78002 471.000
49.94226 491.000
50.00310 477.000