File: Task01/nick/files/ESI_material_XRD/steady_state/crystal_size_analysis/Volumes_EtOAc/1965_RVR_50ul_mill_EtOAc_081020_2.xy
5.00155 800.000
5.16379 758.000
5.32603 667.000
5.48827 641.000
5.65051 580.000
5.81275 543.000
5.97499 520.000
6.13723 421.000
6.29947 508.000
6.46171 581.000
6.62395 497.000
6.78620 722.000
6.94844 407.000
7.11068 348.000
7.27292 300.000
7.43516 303.000
7.59740 324.000
7.75964 331.000
7.92188 326.000
8.08412 319.000
8.24636 480.000
8.40860 872.000
8.57084 2922.000
8.73309 861.000
8.89533 378.000
9.05757 380.000
9.21981 413.000
9.38205 1153.000
9.54429 1080.000
9.70653 787.000
9.86877 2711.000
10.03101 464.000
10.19325 326.000
10.35549 396.000
10.51773 376.000
10.67998 355.000
10.84222 868.000
11.00446 772.000
11.16670 303.000
11.32894 316.000
11.49118 265.000
11.65342 268.000
11.81566 250.000
11.97790 294.000
12.14014 327.000
12.30238 317.000
12.46463 278.000
12.62687 272.000
12.78911 267.000
12.95135 391.000
13.11359 410.000
13.27583 658.000
13.43807 475.000
13.60031 1185.000
13.76255 1862.000
13.92479 455.000
14.08703 326.000
14.24927 312.000
14.41152 318.000
14.57376 346.000
14.73600 420.000
14.89824 680.000
15.06048 307.000
15.22272 337.000
15.38496 346.000
15.54720 683.000
15.70944 623.000
15.87168 703.000
16.03392 2913.000
16.19616 769.000
16.35841 1222.000
16.52065 1205.000
16.68289 2614.000
16.84513 671.000
17.00737 691.000
17.16961 1362.000
17.33185 3750.000
17.49409 977.000
17.65633 3180.000
17.81857 2738.000
17.98081 1326.000
18.14305 1748.000
18.30530 5092.000
18.46754 1873.000
18.62978 971.000
18.79202 1800.000
18.95426 2056.000
19.11650 805.000
19.27874 1155.000
19.44098 2357.000
19.60322 1532.000
19.76546 2677.000
19.92770 3008.000
20.08995 2908.000
20.25219 1614.000
20.41443 1622.000
20.57667 3359.000
20.73891 1093.000
20.90115 1048.000
21.06339 814.000
21.22563 1312.000
21.38787 2801.000
21.55011 3584.000
21.71235 4298.000
21.87459 1067.000
22.03684 1403.000
22.19908 2158.000
22.36132 774.000
22.52356 988.000
22.68580 1436.000
22.84804 887.000
23.01028 821.000
23.17252 689.000
23.33476 1092.000
23.49700 1290.000
23.65924 1090.000
23.82148 928.000
23.98373 1183.000
24.14597 1354.000
24.30821 920.000
24.47045 905.000
24.63269 956.000
24.79493 1139.000
24.95717 727.000
25.11941 1002.000
25.28165 2335.000
25.44389 1415.000
25.60613 763.000
25.76837 1256.000
25.93062 1017.000
26.09286 1542.000
26.25510 1163.000
26.41734 1176.000
26.57958 764.000
26.74182 663.000
26.90406 1023.000
27.06630 597.000
27.22854 572.000
27.39078 634.000
27.55302 630.000
27.71526 432.000
27.87751 447.000
28.03975 433.000
28.20199 478.000
28.36423 797.000
28.52647 1429.000
28.68871 1159.000
28.85095 653.000
29.01319 510.000
29.17543 553.000
29.33767 477.000
29.49991 529.000
29.66216 885.000
29.82440 1152.000
29.98664 988.000
30.14888 913.000
30.31112 669.000
30.47336 463.000
30.63560 496.000
30.79784 519.000
30.96008 563.000
31.12232 548.000
31.28456 732.000
31.44680 804.000
31.60905 1147.000
31.77129 888.000
31.93353 752.000
32.09577 684.000
32.25801 502.000
32.42025 558.000
32.58249 473.000
32.74473 415.000
32.90697 430.000
33.06921 655.000
33.23145 537.000
33.39369 541.000
33.55594 600.000
33.71818 579.000
33.88042 474.000
34.04266 412.000
34.20490 415.000
34.36714 392.000
34.52938 442.000
34.69162 490.000
34.85386 592.000
35.01610 792.000
35.17834 674.000
35.34058 631.000
35.50283 414.000
35.66507 408.000
35.82731 460.000
35.98955 547.000
36.15179 750.000
36.31403 760.000
36.47627 485.000
36.63851 510.000
36.80075 466.000
36.96299 388.000
37.12523 520.000
37.28748 569.000
37.44972 433.000
37.61196 408.000
37.77420 428.000
37.93644 519.000
38.09868 510.000
38.26092 561.000
38.42316 599.000
38.58540 455.000
38.74764 540.000
38.90988 579.000
39.07212 651.000
39.23437 461.000
39.39661 456.000
39.55885 550.000
39.72109 464.000
39.88333 454.000
40.04557 510.000
40.20781 517.000
40.37005 616.000
40.53229 813.000
40.69453 564.000
40.85677 462.000
41.01901 462.000
41.18126 454.000
41.34350 433.000
41.50574 412.000
41.66798 406.000
41.83022 411.000
41.99246 367.000
42.15470 396.000
42.31694 391.000
42.47918 487.000
42.64142 461.000
42.80366 412.000
42.96590 444.000
43.12815 511.000
43.29039 467.000
43.45263 478.000
43.61487 491.000
43.77711 504.000
43.93935 455.000
44.10159 430.000
44.26383 488.000
44.42607 543.000
44.58831 572.000
44.75055 512.000
44.91280 443.000
45.07504 441.000
45.23728 473.000
45.39952 453.000
45.56176 506.000
45.72400 405.000
45.88624 434.000
46.04848 479.000
46.21072 465.000
46.37296 501.000
46.53520 523.000
46.69744 490.000
46.85969 413.000
47.02193 436.000
47.18417 410.000
47.34641 459.000
47.50865 447.000
47.67089 443.000
47.83313 440.000
47.99537 442.000
48.15761 422.000
48.31985 423.000
48.48209 415.000
48.64433 435.000
48.80658 404.000
48.96882 394.000
49.13106 429.000
49.29330 392.000
49.45554 377.000
49.61778 371.000
49.78002 428.000
49.94226 356.000
50.00310 401.000